# Created: 2019-11-28 14:12:23.551920
# rshift intensity
76.1738 0.13667000000000007
76.4989 0.10334000000000021
76.824 0.1566700000000001
77.1491 0.12334000000000023
77.4721 0.1466700000000003
77.7972 0.11334
78.1223 0.0900000000000003
78.4474 0.11334
78.7724 0.05333999999999994
79.0975 0.05333999999999994
79.4204 0.043340000000000156
79.7454 0.020000000000000018
80.0704 0.06000000000000005
80.3954 0.02334000000000014
80.7204 0.03666999999999998
81.0454 0.03666999999999998
81.3682 0.016669999999999963
81.6931 0.016669999999999963
82.0181 0.013339999999999907
82.343 0.020000000000000018
82.6679 0.043340000000000156
82.9907 0.033339999999999925
83.3156 0.020000000000000018
83.6405 0.03000000000000025
83.9654 0.026670000000000194
84.2903 0.03000000000000025
84.613 0.040000000000000036
84.9378 0.013339999999999907
85.2626 0.020000000000000018
85.5875 0.020000000000000018
85.9101 0.040000000000000036
86.2349 0.016669999999999963
86.5597 0.04667000000000021
86.8845 0.03000000000000025
87.2093 0.033339999999999925
87.5319 0.05667
87.8566 0.026670000000000194
88.1814 0.02334000000000014
88.5061 0.016669999999999963
88.8286 0.05333999999999994
89.1533 0.033339999999999925
89.478 0.033339999999999925
89.8027 0.05333999999999994
90.1252 0.04667000000000021
90.4499 0.03000000000000025
90.7745 0.03000000000000025
91.0992 0.040000000000000036
91.4216 0.050000000000000266
91.7462 0.016669999999999963
92.0708 0.033339999999999925
92.3954 0.040000000000000036
92.7179 0.040000000000000036
93.0424 0.03666999999999998
93.367 0.043340000000000156
93.6915 0.040000000000000036
94.0139 0.033339999999999925
94.3384 0.033339999999999925
94.6629 0.02334000000000014
94.9853 0.043340000000000156
95.3098 0.040000000000000036
95.6342 0.04667000000000021
95.9587 0.050000000000000266
96.281 0.043340000000000156
96.6055 0.040000000000000036
96.9299 0.050000000000000266
97.2522 0.03666999999999998
97.5766 0.033339999999999925
97.901 0.03666999999999998
98.2232 0.05667
98.5476 0.050000000000000266
98.8719 0.020000000000000018
99.1942 0.07667000000000002
99.5185 0.04667000000000021
99.8428 0.03666999999999998
100.165 0.0
100.489 0.040000000000000036
100.814 0.043340000000000156
101.136 0.043340000000000156
101.46 0.06000000000000005
101.784 0.02334000000000014
102.106 0.06000000000000005
102.431 0.03666999999999998
102.755 0.03666999999999998
103.077 0.05333999999999994
103.401 0.033339999999999925
103.725 0.07000000000000028
104.047 0.06334000000000017
104.372 0.050000000000000266
104.696 0.07000000000000028
105.018 0.016669999999999963
105.342 0.07333999999999996
105.666 0.040000000000000036
105.988 0.05333999999999994
106.312 0.03666999999999998
106.634 0.06000000000000005
106.958 0.03666999999999998
107.282 0.043340000000000156
107.604 0.07333999999999996
107.928 0.07667000000000002
108.252 0.05333999999999994
108.574 0.08000000000000007
108.898 0.05333999999999994
109.22 0.06000000000000005
109.544 0.07000000000000028
109.868 0.026670000000000194
110.19 0.05667
110.514 0.033339999999999925
110.836 0.05333999999999994
111.159 0.07000000000000028
111.483 0.05667
111.805 0.043340000000000156
112.129 0.050000000000000266
112.451 0.03000000000000025
112.775 0.033339999999999925
113.096 0.026670000000000194
113.42 0.050000000000000266
113.744 0.03666999999999998
114.066 0.040000000000000036
114.39 0.043340000000000156
114.711 0.05333999999999994
115.035 0.06334000000000017
115.357 0.050000000000000266
115.681 0.04667000000000021
116.004 0.02334000000000014
116.326 0.05333999999999994
116.65 0.026670000000000194
116.971 0.03000000000000025
117.295 0.033339999999999925
117.617 0.050000000000000266
117.94 0.040000000000000036
118.262 0.020000000000000018
118.586 0.0900000000000003
118.907 0.03666999999999998
119.231 0.05333999999999994
119.554 0.04667000000000021
119.876 0.04667000000000021
120.199 0.03666999999999998
120.521 0.040000000000000036
120.845 0.04667000000000021
121.166 0.06334000000000017
121.49 0.026670000000000194
121.811 0.05667
122.135 0.043340000000000156
122.456 0.050000000000000266
122.78 0.05667
123.101 0.05333999999999994
123.424 0.06667000000000023
123.746 0.03000000000000025
124.069 0.06667000000000023
124.391 0.03666999999999998
124.714 0.026670000000000194
125.035 0.05667
125.359 0.043340000000000156
125.68 0.043340000000000156
126.004 0.043340000000000156
126.325 0.050000000000000266
126.648 0.04667000000000021
126.97 0.02334000000000014
127.291 0.06000000000000005
127.614 0.043340000000000156
127.935 0.05333999999999994
128.259 0.04667000000000021
128.58 0.04667000000000021
128.903 0.05333999999999994
129.224 0.06667000000000023
129.548 0.06334000000000017
129.869 0.06667000000000023
130.192 0.05667
130.513 0.06000000000000005
130.834 0.05667
131.158 0.07000000000000028
131.479 0.08667000000000025
131.802 0.06000000000000005
132.123 0.07667000000000002
132.446 0.07000000000000028
132.767 0.06000000000000005
133.09 0.07333999999999996
133.411 0.07667000000000002
133.733 0.06667000000000023
134.056 0.07000000000000028
134.377 0.04667000000000021
134.7 0.043340000000000156
135.021 0.05333999999999994
135.342 0.04667000000000021
135.665 0.06334000000000017
135.986 0.043340000000000156
136.309 0.033339999999999925
136.63 0.03000000000000025
136.951 0.050000000000000266
137.274 0.033339999999999925
137.595 0.033339999999999925
137.918 0.043340000000000156
138.238 0.06334000000000017
138.559 0.06000000000000005
138.882 0.06334000000000017
139.203 0.06667000000000023
139.526 0.07333999999999996
139.847 0.04667000000000021
140.168 0.050000000000000266
140.491 0.05333999999999994
140.811 0.07333999999999996
141.132 0.06000000000000005
141.455 0.08334000000000019
141.776 0.07667000000000002
142.097 0.06667000000000023
142.419 0.06000000000000005
142.74 0.08667000000000025
143.061 0.07333999999999996
143.384 0.07333999999999996
143.704 0.06000000000000005
144.027 0.08000000000000007
144.348 0.07000000000000028
144.668 0.07333999999999996
144.991 0.08000000000000007
145.312 0.07333999999999996
145.632 0.05333999999999994
145.955 0.08667000000000025
146.276 0.06334000000000017
146.596 0.06667000000000023
146.917 0.04667000000000021
147.24 0.05667
147.56 0.06334000000000017
147.881 0.06000000000000005
148.203 0.07000000000000028
148.524 0.026670000000000194
148.844 0.07667000000000002
149.167 0.06334000000000017
149.487 0.06667000000000023
149.808 0.06000000000000005
150.131 0.06000000000000005
150.451 0.050000000000000266
150.771 0.07333999999999996
151.092 0.05667
151.414 0.08667000000000025
151.735 0.08000000000000007
152.055 0.06000000000000005
152.378 0.05333999999999994
152.698 0.05333999999999994
153.018 0.050000000000000266
153.339 0.05333999999999994
153.661 0.07667000000000002
153.982 0.06667000000000023
154.302 0.06334000000000017
154.622 0.03666999999999998
154.945 0.04667000000000021
155.265 0.07333999999999996
155.585 0.040000000000000036
155.905 0.06667000000000023
156.228 0.04667000000000021
156.548 0.06334000000000017
156.868 0.07333999999999996
157.188 0.06334000000000017
157.511 0.09333999999999998
157.831 0.06000000000000005
158.151 0.07667000000000002
158.471 0.07333999999999996
158.794 0.05667
159.114 0.08334000000000019
159.434 0.06000000000000005
159.754 0.06334000000000017
160.074 0.050000000000000266
160.396 0.033339999999999925
160.717 0.07333999999999996
161.037 0.03666999999999998
161.357 0.050000000000000266
161.679 0.050000000000000266
161.999 0.05333999999999994
162.319 0.05333999999999994
162.639 0.08334000000000019
162.959 0.06334000000000017
163.281 0.07000000000000028
163.601 0.08667000000000025
163.921 0.07333999999999996
164.241 0.07000000000000028
164.561 0.08000000000000007
164.881 0.07000000000000028
165.203 0.08667000000000025
165.523 0.06334000000000017
165.843 0.10334000000000021
166.163 0.07667000000000002
166.483 0.07667000000000002
166.803 0.06334000000000017
167.125 0.08667000000000025
167.445 0.08667000000000025
167.764 0.05667
168.084 0.06334000000000017
168.404 0.09333999999999998
168.724 0.06334000000000017
169.046 0.08667000000000025
169.366 0.07667000000000002
169.685 0.07667000000000002
170.005 0.0900000000000003
170.325 0.08000000000000007
170.645 0.1200000000000001
170.964 0.06000000000000005
171.286 0.07333999999999996
171.606 0.06334000000000017
171.926 0.06667000000000023
172.245 0.06667000000000023
172.565 0.09333999999999998
172.885 0.050000000000000266
173.204 0.08667000000000025
173.524 0.06000000000000005
173.846 0.05333999999999994
174.166 0.05667
174.485 0.07000000000000028
174.805 0.07000000000000028
175.124 0.06334000000000017
175.444 0.0900000000000003
175.764 0.06334000000000017
176.083 0.06334000000000017
176.403 0.04667000000000021
176.722 0.07000000000000028
177.044 0.06667000000000023
177.363 0.07667000000000002
177.683 0.06000000000000005
178.002 0.06000000000000005
178.322 0.06334000000000017
178.641 0.08667000000000025
178.961 0.06334000000000017
179.28 0.05667
179.6 0.08000000000000007
179.919 0.06000000000000005
180.239 0.07667000000000002
180.558 0.07000000000000028
180.877 0.08334000000000019
181.197 0.06667000000000023
181.516 0.06000000000000005
181.838 0.07667000000000002
182.157 0.07667000000000002
182.476 0.06334000000000017
182.796 0.050000000000000266
183.115 0.08000000000000007
183.434 0.06334000000000017
183.754 0.043340000000000156
184.073 0.050000000000000266
184.392 0.04667000000000021
184.712 0.07333999999999996
185.031 0.06334000000000017
185.35 0.06000000000000005
185.669 0.05333999999999994
185.989 0.08334000000000019
186.308 0.07000000000000028
186.627 0.06334000000000017
186.946 0.06334000000000017
187.265 0.06000000000000005
187.585 0.06334000000000017
187.904 0.05667
188.223 0.08334000000000019
188.542 0.043340000000000156
188.861 0.08667000000000025
189.18 0.07333999999999996
189.499 0.08667000000000025
189.818 0.08000000000000007
190.138 0.06334000000000017
190.457 0.07333999999999996
190.776 0.040000000000000036
191.095 0.08667000000000025
191.414 0.05333999999999994
191.733 0.05333999999999994
192.052 0.05333999999999994
192.371 0.07000000000000028
192.69 0.08334000000000019
193.009 0.08000000000000007
193.328 0.06334000000000017
193.647 0.03666999999999998
193.966 0.06334000000000017
194.285 0.08667000000000025
194.602 0.06667000000000023
194.92 0.06667000000000023
195.239 0.08334000000000019
195.558 0.05667
195.877 0.07333999999999996
196.196 0.050000000000000266
196.515 0.10334000000000021
196.834 0.06000000000000005
197.153 0.10334000000000021
197.471 0.07333999999999996
197.79 0.08667000000000025
198.109 0.0900000000000003
198.428 0.05667
198.747 0.07667000000000002
199.065 0.07667000000000002
199.382 0.07000000000000028
199.701 0.0900000000000003
200.02 0.09333999999999998
200.338 0.11334
200.657 0.06000000000000005
200.976 0.08000000000000007
201.295 0.08667000000000025
201.613 0.07667000000000002
201.932 0.08667000000000025
202.251 0.08000000000000007
202.567 0.07667000000000002
202.886 0.09667000000000003
203.204 0.10000000000000009
203.523 0.09667000000000003
203.842 0.09333999999999998
204.16 0.08000000000000007
204.479 0.07333999999999996
204.797 0.07000000000000028
205.114 0.09333999999999998
205.433 0.0900000000000003
205.751 0.07667000000000002
206.07 0.07000000000000028
206.388 0.09333999999999998
206.707 0.08000000000000007
207.025 0.08000000000000007
207.342 0.06334000000000017
207.66 0.07667000000000002
207.979 0.08334000000000019
208.297 0.08667000000000025
208.615 0.08667000000000025
208.934 0.0900000000000003
209.25 0.08334000000000019
209.569 0.0900000000000003
209.887 0.08000000000000007
210.205 0.05667
210.524 0.09333999999999998
210.842 0.07000000000000028
211.158 0.10334000000000021
211.477 0.06000000000000005
211.795 0.0900000000000003
212.113 0.10000000000000009
212.432 0.08334000000000019
212.75 0.07667000000000002
213.066 0.06667000000000023
213.385 0.09333999999999998
213.703 0.07333999999999996
214.021 0.08667000000000025
214.339 0.08334000000000019
214.656 0.08667000000000025
214.974 0.08334000000000019
215.292 0.11000000000000032
215.61 0.10667000000000026
215.926 0.07667000000000002
216.245 0.10667000000000026
216.563 0.07000000000000028
216.881 0.10000000000000009
217.199 0.11334
217.515 0.10334000000000021
217.833 0.10000000000000009
218.151 0.11000000000000032
218.469 0.10334000000000021
218.785 0.13667000000000007
219.104 0.08667000000000025
219.422 0.1200000000000001
219.74 0.09333999999999998
220.056 0.11667000000000005
220.374 0.10334000000000021
220.692 0.1200000000000001
221.01 0.10667000000000026
221.326 0.12667000000000028
221.644 0.10667000000000026
221.962 0.10334000000000021
222.28 0.11000000000000032
222.596 0.10334000000000021
222.914 0.10667000000000026
223.232 0.10000000000000009
223.547 0.12334000000000023
223.865 0.10334000000000021
224.183 0.1466700000000003
224.501 0.08667000000000025
224.817 0.10667000000000026
225.135 0.1299999999999999
225.453 0.12334000000000023
225.768 0.1466700000000003
226.086 0.11334
226.404 0.11667000000000005
226.722 0.11000000000000032
227.038 0.11334
227.355 0.1200000000000001
227.673 0.12334000000000023
227.989 0.10334000000000021
228.307 0.1299999999999999
228.625 0.12334000000000023
228.94 0.1299999999999999
229.258 0.1299999999999999
229.576 0.11334
229.891 0.12334000000000023
230.209 0.11334
230.527 0.09333999999999998
230.842 0.10000000000000009
231.16 0.12334000000000023
231.478 0.11334
231.793 0.10334000000000021
232.111 0.12667000000000028
232.428 0.13334000000000001
232.744 0.14334000000000024
233.062 0.10000000000000009
233.379 0.1200000000000001
233.695 0.10334000000000021
234.012 0.09333999999999998
234.33 0.1200000000000001
234.645 0.08334000000000019
234.963 0.09333999999999998
235.278 0.07333999999999996
235.596 0.11334
235.913 0.09333999999999998
236.229 0.09333999999999998
236.546 0.12334000000000023
236.864 0.10000000000000009
237.179 0.08000000000000007
237.497 0.11334
237.812 0.10667000000000026
238.129 0.09667000000000003
238.447 0.11334
238.762 0.10000000000000009
239.08 0.08667000000000025
239.395 0.10667000000000026
239.712 0.0900000000000003
240.03 0.10667000000000026
240.345 0.09667000000000003
240.662 0.08667000000000025
240.978 0.13667000000000007
241.295 0.13334000000000001
241.61 0.08000000000000007
241.927 0.10334000000000021
242.245 0.11334
242.56 0.09333999999999998
242.877 0.10334000000000021
243.192 0.08334000000000019
243.51 0.12334000000000023
243.825 0.12667000000000028
244.142 0.11334
244.459 0.11000000000000032
244.774 0.12334000000000023
245.092 0.09667000000000003
245.407 0.09667000000000003
245.724 0.12667000000000028
246.039 0.10334000000000021
246.356 0.10667000000000026
246.671 0.12667000000000028
246.988 0.13334000000000001
247.303 0.09667000000000003
247.62 0.1200000000000001
247.938 0.11334
248.253 0.10000000000000009
248.57 0.10667000000000026
248.885 0.11000000000000032
249.202 0.0900000000000003
249.517 0.12334000000000023
249.834 0.11334
250.149 0.14000000000000012
250.466 0.11667000000000005
250.781 0.09667000000000003
251.098 0.14334000000000024
251.412 0.13667000000000007
251.729 0.12334000000000023
252.044 0.12667000000000028
252.361 0.13667000000000007
252.676 0.1466700000000003
252.993 0.12334000000000023
253.308 0.11334
253.625 0.16334000000000026
253.94 0.1200000000000001
254.256 0.1466700000000003
254.571 0.10000000000000009
254.888 0.13667000000000007
255.203 0.10667000000000026
255.518 0.1299999999999999
255.834 0.14000000000000012
256.149 0.0900000000000003
256.466 0.13334000000000001
256.781 0.1299999999999999
257.097 0.1200000000000001
257.412 0.12334000000000023
257.729 0.13667000000000007
258.044 0.1200000000000001
258.36 0.12334000000000023
258.675 0.11667000000000005
258.99 0.1200000000000001
259.306 0.14000000000000012
259.621 0.10000000000000009
259.938 0.11667000000000005
260.252 0.10667000000000026
260.569 0.09667000000000003
260.883 0.10334000000000021
261.198 0.10667000000000026
261.515 0.13667000000000007
261.829 0.10667000000000026
262.146 0.12667000000000028
262.46 0.13334000000000001
262.775 0.1200000000000001
263.091 0.10667000000000026
263.406 0.13334000000000001
263.723 0.1299999999999999
264.037 0.1200000000000001
264.354 0.1200000000000001
264.668 0.1200000000000001
264.982 0.11334
265.299 0.08667000000000025
265.613 0.11667000000000005
265.928 0.1200000000000001
266.244 0.08667000000000025
266.559 0.07000000000000028
266.875 0.0900000000000003
267.189 0.10334000000000021
267.504 0.10000000000000009
267.82 0.09667000000000003
268.134 0.10334000000000021
268.449 0.1200000000000001
268.765 0.10667000000000026
269.079 0.06667000000000023
269.394 0.1200000000000001
269.71 0.11334
270.024 0.10334000000000021
270.341 0.08667000000000025
270.655 0.10334000000000021
270.969 0.11000000000000032
271.286 0.09333999999999998
271.6 0.1200000000000001
271.914 0.07000000000000028
272.23 0.12667000000000028
272.544 0.12334000000000023
272.859 0.11000000000000032
273.175 0.10000000000000009
273.489 0.12334000000000023
273.803 0.0900000000000003
274.119 0.11000000000000032
274.433 0.1200000000000001
274.747 0.12334000000000023
275.062 0.1200000000000001
275.378 0.10334000000000021
275.692 0.11667000000000005
276.006 0.11334
276.322 0.09667000000000003
276.636 0.07000000000000028
276.95 0.15334000000000003
277.266 0.12667000000000028
277.58 0.10000000000000009
277.894 0.1299999999999999
278.208 0.10667000000000026
278.524 0.11334
278.838 0.11667000000000005
279.152 0.11000000000000032
279.468 0.13334000000000001
279.782 0.11000000000000032
280.096 0.12667000000000028
280.41 0.11000000000000032
280.726 0.12667000000000028
281.04 0.1566700000000001
281.354 0.14334000000000024
281.668 0.12667000000000028
281.983 0.1200000000000001
282.297 0.1466700000000003
282.611 0.1466700000000003
282.925 0.13667000000000007
283.241 0.12667000000000028
283.555 0.14334000000000024
283.868 0.1466700000000003
284.182 0.14334000000000024
284.498 0.15334000000000003
284.812 0.12334000000000023
285.126 0.11000000000000032
285.439 0.14000000000000012
285.753 0.11667000000000005
286.069 0.15334000000000003
286.383 0.12667000000000028
286.696 0.12334000000000023
287.01 0.14000000000000012
287.326 0.11334
287.639 0.10000000000000009
287.953 0.10667000000000026
288.267 0.12667000000000028
288.58 0.10334000000000021
288.896 0.10000000000000009
289.21 0.13667000000000007
289.523 0.13667000000000007
289.837 0.15334000000000003
290.15 0.13334000000000001
290.466 0.14000000000000012
290.78 0.1200000000000001
291.093 0.1200000000000001
291.407 0.09333999999999998
291.72 0.13334000000000001
292.034 0.12667000000000028
292.349 0.12667000000000028
292.663 0.11000000000000032
292.976 0.11000000000000032
293.29 0.12667000000000028
293.603 0.11667000000000005
293.917 0.11334
294.232 0.10000000000000009
294.546 0.10334000000000021
294.859 0.13667000000000007
295.172 0.1200000000000001
295.486 0.0900000000000003
295.799 0.11667000000000005
296.113 0.11334
296.428 0.10334000000000021
296.741 0.07667000000000002
297.055 0.1466700000000003
297.368 0.11334
297.681 0.1200000000000001
297.995 0.14334000000000024
298.308 0.12334000000000023
298.621 0.10667000000000026
298.937 0.11667000000000005
299.25 0.09667000000000003
299.563 0.12667000000000028
299.876 0.08334000000000019
300.19 0.1200000000000001
300.503 0.08667000000000025
300.816 0.14334000000000024
301.129 0.11334
301.442 0.1299999999999999
301.756 0.1200000000000001
302.071 0.11667000000000005
302.384 0.12334000000000023
302.697 0.11667000000000005
303.01 0.14334000000000024
303.323 0.11334
303.637 0.11667000000000005
303.95 0.12667000000000028
304.263 0.10667000000000026
304.576 0.12667000000000028
304.889 0.09333999999999998
305.202 0.11334
305.515 0.10000000000000009
305.828 0.11667000000000005
306.141 0.06667000000000023
306.456 0.11667000000000005
306.769 0.12334000000000023
307.082 0.10000000000000009
307.395 0.11000000000000032
307.708 0.10667000000000026
308.021 0.11000000000000032
308.334 0.12334000000000023
308.647 0.10334000000000021
308.96 0.11000000000000032
309.273 0.1299999999999999
309.586 0.11000000000000032
309.899 0.12334000000000023
310.212 0.11334
