# Created: 2019-11-28 13:05:41.465471
# rshift intensity
76.1738 0.26670000000000016
76.4989 0.13340000000000174
76.824 0.23340000000000316
77.1491 0.06670000000000087
77.4721 0.1667000000000023
77.7972 0.1667000000000023
78.1223 0.06670000000000087
78.4474 0.1667000000000023
78.7724 0.03340000000000032
79.0975 0.03340000000000032
79.4204 0.1667000000000023
79.7454 0.1667000000000023
80.0704 0.13340000000000174
80.3954 0.18340000000000245
80.7204 0.06670000000000087
81.0454 0.10000000000000142
81.3682 0.03340000000000032
81.6931 0.05000000000000071
82.0181 0.06670000000000087
82.343 0.15000000000000213
82.6679 0.06670000000000087
82.9907 0.20000000000000284
83.3156 0.03340000000000032
83.6405 0.10000000000000142
83.9654 0.05000000000000071
84.2903 0.01670000000000016
84.613 0.13340000000000174
84.9378 0.0
85.2626 0.06670000000000087
85.5875 0.15000000000000213
85.9101 0.10000000000000142
86.2349 0.13340000000000174
86.5597 0.03340000000000032
86.8845 0.10000000000000142
87.2093 0.13340000000000174
87.5319 0.13340000000000174
87.8566 0.18340000000000245
88.1814 0.13340000000000174
88.5061 0.08340000000000103
88.8286 0.05000000000000071
89.1533 0.20000000000000284
89.478 0.05000000000000071
89.8027 0.03340000000000032
90.1252 0.05000000000000071
90.4499 0.08340000000000103
90.7745 0.06670000000000087
91.0992 0.1667000000000023
91.4216 0.13340000000000174
91.7462 0.05000000000000071
92.0708 0.05000000000000071
92.3954 0.06670000000000087
92.7179 0.08340000000000103
93.0424 0.1667000000000023
93.367 0.10000000000000142
93.6915 0.15000000000000213
94.0139 0.15000000000000213
94.3384 0.10000000000000142
94.6629 0.05000000000000071
94.9853 0.08340000000000103
95.3098 0.11670000000000158
95.6342 0.10000000000000142
95.9587 0.1667000000000023
96.281 0.15000000000000213
96.6055 0.03340000000000032
96.9299 0.13340000000000174
97.2522 0.11670000000000158
97.5766 0.01670000000000016
97.901 0.01670000000000016
98.2232 0.11670000000000158
98.5476 0.13340000000000174
98.8719 0.03340000000000032
99.1942 0.15000000000000213
99.5185 0.10000000000000142
99.8428 0.13340000000000174
100.165 0.10000000000000142
100.489 0.08340000000000103
100.814 0.1667000000000023
101.136 0.18340000000000245
101.46 0.23340000000000316
101.784 0.13340000000000174
102.106 0.1667000000000023
102.431 0.1667000000000023
102.755 0.03340000000000032
103.077 0.11670000000000158
103.401 0.13340000000000174
103.725 0.06670000000000087
104.047 0.15000000000000213
104.372 0.15000000000000213
104.696 0.23340000000000316
105.018 0.11670000000000158
105.342 0.11670000000000158
105.666 0.13340000000000174
105.988 0.05000000000000071
106.312 0.1667000000000023
106.634 0.1667000000000023
106.958 0.20000000000000284
107.282 0.13340000000000174
107.604 0.08340000000000103
107.928 0.08340000000000103
108.252 0.1667000000000023
108.574 0.13340000000000174
108.898 0.20000000000000284
109.22 0.06670000000000087
109.544 0.10000000000000142
109.868 0.11670000000000158
110.19 0.18340000000000245
110.514 0.13340000000000174
110.836 0.0
111.159 0.13340000000000174
111.483 0.03340000000000032
111.805 0.10000000000000142
112.129 0.1667000000000023
112.451 0.06670000000000087
112.775 0.20000000000000284
113.096 0.18340000000000245
113.42 0.18340000000000245
113.744 0.13340000000000174
114.066 0.11670000000000158
114.39 0.11670000000000158
114.711 0.13340000000000174
115.035 0.11670000000000158
115.357 0.20000000000000284
115.681 0.06670000000000087
116.004 0.23340000000000316
116.326 0.1667000000000023
116.65 0.18340000000000245
116.971 0.01670000000000016
117.295 0.10000000000000142
117.617 0.13340000000000174
117.94 0.08340000000000103
118.262 0.10000000000000142
118.586 0.03340000000000032
118.907 0.11670000000000158
119.231 0.08340000000000103
119.554 0.11670000000000158
119.876 0.06670000000000087
120.199 0.08340000000000103
120.521 0.11670000000000158
120.845 0.10000000000000142
121.166 0.08340000000000103
121.49 0.15000000000000213
121.811 0.10000000000000142
122.135 0.06670000000000087
122.456 0.05000000000000071
122.78 0.05000000000000071
123.101 0.15000000000000213
123.424 0.06670000000000087
123.746 0.13340000000000174
124.069 0.10000000000000142
124.391 0.18340000000000245
124.714 0.15000000000000213
125.035 0.03340000000000032
125.359 0.18340000000000245
125.68 0.15000000000000213
126.004 0.05000000000000071
126.325 0.18340000000000245
126.648 0.01670000000000016
126.97 0.20000000000000284
127.291 0.13340000000000174
127.614 0.08340000000000103
127.935 0.23340000000000316
128.259 0.10000000000000142
128.58 0.08340000000000103
128.903 0.18340000000000245
129.224 0.18340000000000245
129.548 0.10000000000000142
129.869 0.20000000000000284
130.192 0.13340000000000174
130.513 0.18340000000000245
130.834 0.08340000000000103
131.158 0.26670000000000016
131.479 0.13340000000000174
131.802 0.13340000000000174
132.123 0.15000000000000213
132.446 0.03340000000000032
132.767 0.3000000000000007
133.09 0.18340000000000245
133.411 0.06670000000000087
133.733 0.25
134.056 0.10000000000000142
134.377 0.11670000000000158
134.7 0.1667000000000023
135.021 0.11670000000000158
135.342 0.15000000000000213
135.665 0.20000000000000284
135.986 0.13340000000000174
136.309 0.10000000000000142
136.63 0.13340000000000174
136.951 0.1667000000000023
137.274 0.11670000000000158
137.595 0.216700000000003
137.918 0.05000000000000071
138.238 0.18340000000000245
138.559 0.08340000000000103
138.882 0.11670000000000158
139.203 0.1667000000000023
139.526 0.08340000000000103
139.847 0.216700000000003
140.168 0.18340000000000245
140.491 0.13340000000000174
140.811 0.11670000000000158
141.132 0.08340000000000103
141.455 0.11670000000000158
141.776 0.18340000000000245
142.097 0.1667000000000023
142.419 0.20000000000000284
142.74 0.15000000000000213
143.061 0.15000000000000213
143.384 0.1667000000000023
143.704 0.05000000000000071
144.027 0.23340000000000316
144.348 0.23340000000000316
144.668 0.216700000000003
144.991 0.10000000000000142
145.312 0.13340000000000174
145.632 0.15000000000000213
145.955 0.10000000000000142
146.276 0.20000000000000284
146.596 0.13340000000000174
146.917 0.20000000000000284
147.24 0.18340000000000245
147.56 0.05000000000000071
147.881 0.25
148.203 0.13340000000000174
148.524 0.15000000000000213
148.844 0.15000000000000213
149.167 0.11670000000000158
149.487 0.10000000000000142
149.808 0.06670000000000087
150.131 0.11670000000000158
150.451 0.06670000000000087
150.771 0.18340000000000245
151.092 0.18340000000000245
151.414 0.13340000000000174
151.735 0.23340000000000316
152.055 0.06670000000000087
152.378 0.08340000000000103
152.698 0.13340000000000174
153.018 0.23340000000000316
153.339 0.10000000000000142
153.661 0.11670000000000158
153.982 0.20000000000000284
154.302 0.13340000000000174
154.622 0.18340000000000245
154.945 0.20000000000000284
155.265 0.1667000000000023
155.585 0.10000000000000142
155.905 0.06670000000000087
156.228 0.18340000000000245
156.548 0.1667000000000023
156.868 0.23340000000000316
157.188 0.10000000000000142
157.511 0.2834000000000003
157.831 0.15000000000000213
158.151 0.216700000000003
158.471 0.15000000000000213
158.794 0.18340000000000245
159.114 0.10000000000000142
159.434 0.10000000000000142
159.754 0.1667000000000023
160.074 0.216700000000003
160.396 0.13340000000000174
160.717 0.06670000000000087
161.037 0.15000000000000213
161.357 0.13340000000000174
161.679 0.13340000000000174
161.999 0.11670000000000158
162.319 0.1667000000000023
162.639 0.20000000000000284
162.959 0.11670000000000158
163.281 0.13340000000000174
163.601 0.20000000000000284
163.921 0.23340000000000316
164.241 0.216700000000003
164.561 0.15000000000000213
164.881 0.13340000000000174
165.203 0.08340000000000103
165.523 0.25
165.843 0.1667000000000023
166.163 0.25
166.483 0.08340000000000103
166.803 0.23340000000000316
167.125 0.15000000000000213
167.445 0.1667000000000023
167.764 0.13340000000000174
168.084 0.216700000000003
168.404 0.1667000000000023
168.724 0.26670000000000016
169.046 0.08340000000000103
169.366 0.23340000000000316
169.685 0.0
170.005 0.216700000000003
170.325 0.10000000000000142
170.645 0.10000000000000142
170.964 0.1667000000000023
171.286 0.20000000000000284
171.606 0.1667000000000023
171.926 0.15000000000000213
172.245 0.216700000000003
172.565 0.13340000000000174
172.885 0.18340000000000245
173.204 0.216700000000003
173.524 0.10000000000000142
173.846 0.11670000000000158
174.166 0.18340000000000245
174.485 0.15000000000000213
174.805 0.13340000000000174
175.124 0.08340000000000103
175.444 0.13340000000000174
175.764 0.1667000000000023
176.083 0.10000000000000142
176.403 0.15000000000000213
176.722 0.06670000000000087
177.044 0.23340000000000316
177.363 0.216700000000003
177.683 0.15000000000000213
178.002 0.13340000000000174
178.322 0.1667000000000023
178.641 0.20000000000000284
178.961 0.1667000000000023
179.28 0.18340000000000245
179.6 0.23340000000000316
179.919 0.08340000000000103
180.239 0.08340000000000103
180.558 0.216700000000003
180.877 0.20000000000000284
181.197 0.20000000000000284
181.516 0.06670000000000087
181.838 0.18340000000000245
182.157 0.31670000000000087
182.476 0.13340000000000174
182.796 0.13340000000000174
183.115 0.06670000000000087
183.434 0.10000000000000142
183.754 0.1667000000000023
184.073 0.06670000000000087
184.392 0.26670000000000016
184.712 0.15000000000000213
185.031 0.18340000000000245
185.35 0.18340000000000245
185.669 0.13340000000000174
185.989 0.18340000000000245
186.308 0.08340000000000103
186.627 0.216700000000003
186.946 0.216700000000003
187.265 0.13340000000000174
187.585 0.13340000000000174
187.904 0.08340000000000103
188.223 0.23340000000000316
188.542 0.15000000000000213
188.861 0.216700000000003
189.18 0.10000000000000142
189.499 0.23340000000000316
189.818 0.23340000000000316
190.138 0.15000000000000213
190.457 0.20000000000000284
190.776 0.25
191.095 0.20000000000000284
191.414 0.25
191.733 0.216700000000003
192.052 0.08340000000000103
192.371 0.26670000000000016
192.69 0.05000000000000071
193.009 0.15000000000000213
193.328 0.25
193.647 0.03340000000000032
193.966 0.216700000000003
194.285 0.13340000000000174
194.602 0.3000000000000007
194.92 0.1667000000000023
195.239 0.10000000000000142
195.558 0.20000000000000284
195.877 0.1667000000000023
196.196 0.13340000000000174
196.515 0.216700000000003
196.834 0.1667000000000023
197.153 0.05000000000000071
197.471 0.18340000000000245
197.79 0.1667000000000023
198.109 0.216700000000003
198.428 0.18340000000000245
198.747 0.18340000000000245
199.065 0.08340000000000103
199.382 0.13340000000000174
199.701 0.08340000000000103
200.02 0.2834000000000003
200.338 0.26670000000000016
200.657 0.11670000000000158
200.976 0.10000000000000142
201.295 0.13340000000000174
201.613 0.20000000000000284
201.932 0.13340000000000174
202.251 0.18340000000000245
202.567 0.08340000000000103
202.886 0.15000000000000213
203.204 0.18340000000000245
203.523 0.18340000000000245
203.842 0.20000000000000284
204.16 0.20000000000000284
204.479 0.18340000000000245
204.797 0.20000000000000284
205.114 0.11670000000000158
205.433 0.1667000000000023
205.751 0.23340000000000316
206.07 0.15000000000000213
206.388 0.18340000000000245
206.707 0.18340000000000245
207.025 0.0
207.342 0.20000000000000284
207.66 0.13340000000000174
207.979 0.3000000000000007
208.297 0.25
208.615 0.25
208.934 0.25
209.25 0.06670000000000087
209.569 0.2834000000000003
209.887 0.08340000000000103
210.205 0.20000000000000284
210.524 0.15000000000000213
210.842 0.18340000000000245
211.158 0.13340000000000174
211.477 0.23340000000000316
211.795 0.13340000000000174
212.113 0.20000000000000284
212.432 0.10000000000000142
212.75 0.11670000000000158
213.066 0.11670000000000158
213.385 0.31670000000000087
213.703 0.26670000000000016
214.021 0.08340000000000103
214.339 0.3500000000000014
214.656 0.08340000000000103
214.974 0.3000000000000007
215.292 0.25
215.61 0.11670000000000158
215.926 0.2834000000000003
216.245 0.10000000000000142
216.563 0.1667000000000023
216.881 0.26670000000000016
217.199 0.25
217.515 0.31670000000000087
217.833 0.25
218.151 0.15000000000000213
218.469 0.13340000000000174
218.785 0.18340000000000245
219.104 0.13340000000000174
219.422 0.15000000000000213
219.74 0.20000000000000284
220.056 0.20000000000000284
220.374 0.13340000000000174
220.692 0.13340000000000174
221.01 0.216700000000003
221.326 0.20000000000000284
221.644 0.20000000000000284
221.962 0.1667000000000023
222.28 0.20000000000000284
222.596 0.10000000000000142
222.914 0.26670000000000016
223.232 0.15000000000000213
223.547 0.18340000000000245
223.865 0.216700000000003
224.183 0.10000000000000142
224.501 0.25
224.817 0.15000000000000213
225.135 0.26670000000000016
225.453 0.216700000000003
225.768 0.1667000000000023
226.086 0.216700000000003
226.404 0.26670000000000016
226.722 0.18340000000000245
227.038 0.15000000000000213
227.355 0.216700000000003
227.673 0.20000000000000284
227.989 0.11670000000000158
228.307 0.25
228.625 0.08340000000000103
228.94 0.13340000000000174
229.258 0.25
229.576 0.18340000000000245
229.891 0.3000000000000007
230.209 0.18340000000000245
230.527 0.08340000000000103
230.842 0.1667000000000023
231.16 0.3000000000000007
231.478 0.1667000000000023
231.793 0.08340000000000103
232.111 0.26670000000000016
232.428 0.1667000000000023
232.744 0.20000000000000284
233.062 0.23340000000000316
233.379 0.11670000000000158
233.695 0.216700000000003
234.012 0.20000000000000284
234.33 0.216700000000003
234.645 0.11670000000000158
234.963 0.06670000000000087
235.278 0.20000000000000284
235.596 0.20000000000000284
235.913 0.08340000000000103
236.229 0.26670000000000016
236.546 0.18340000000000245
236.864 0.216700000000003
237.179 0.2834000000000003
237.497 0.15000000000000213
237.812 0.23340000000000316
238.129 0.20000000000000284
238.447 0.15000000000000213
238.762 0.13340000000000174
239.08 0.13340000000000174
239.395 0.15000000000000213
239.712 0.18340000000000245
240.03 0.08340000000000103
240.345 0.26670000000000016
240.662 0.23340000000000316
240.978 0.10000000000000142
241.295 0.1667000000000023
241.61 0.26670000000000016
241.927 0.1667000000000023
242.245 0.18340000000000245
242.56 0.15000000000000213
242.877 0.13340000000000174
243.192 0.31670000000000087
243.51 0.13340000000000174
243.825 0.13340000000000174
244.142 0.18340000000000245
244.459 0.18340000000000245
244.774 0.25
245.092 0.216700000000003
245.407 0.18340000000000245
245.724 0.15000000000000213
246.039 0.13340000000000174
246.356 0.26670000000000016
246.671 0.20000000000000284
246.988 0.20000000000000284
247.303 0.33340000000000103
247.62 0.15000000000000213
247.938 0.20000000000000284
248.253 0.25
248.57 0.15000000000000213
248.885 0.18340000000000245
249.202 0.25
249.517 0.26670000000000016
249.834 0.25
250.149 0.18340000000000245
250.466 0.20000000000000284
250.781 0.216700000000003
251.098 0.11670000000000158
251.412 0.20000000000000284
251.729 0.1667000000000023
252.044 0.216700000000003
252.361 0.3000000000000007
252.676 0.216700000000003
252.993 0.3000000000000007
253.308 0.1667000000000023
253.625 0.20000000000000284
253.94 0.20000000000000284
254.256 0.23340000000000316
254.571 0.18340000000000245
254.888 0.1667000000000023
255.203 0.11670000000000158
255.518 0.3000000000000007
255.834 0.216700000000003
256.149 0.1667000000000023
256.466 0.2834000000000003
256.781 0.25
257.097 0.25
257.412 0.1667000000000023
257.729 0.1667000000000023
258.044 0.23340000000000316
258.36 0.25
258.675 0.18340000000000245
258.99 0.13340000000000174
259.306 0.20000000000000284
259.621 0.25
259.938 0.20000000000000284
260.252 0.13340000000000174
260.569 0.1667000000000023
260.883 0.20000000000000284
261.198 0.31670000000000087
261.515 0.13340000000000174
261.829 0.3000000000000007
262.146 0.23340000000000316
262.46 0.15000000000000213
262.775 0.15000000000000213
263.091 0.06670000000000087
263.406 0.2834000000000003
263.723 0.25
264.037 0.18340000000000245
264.354 0.15000000000000213
264.668 0.18340000000000245
264.982 0.25
265.299 0.23340000000000316
265.613 0.06670000000000087
265.928 0.18340000000000245
266.244 0.25
266.559 0.18340000000000245
266.875 0.15000000000000213
267.189 0.08340000000000103
267.504 0.3500000000000014
267.82 0.20000000000000284
268.134 0.25
268.449 0.20000000000000284
268.765 0.25
269.079 0.20000000000000284
269.394 0.1667000000000023
269.71 0.20000000000000284
270.024 0.26670000000000016
270.341 0.26670000000000016
270.655 0.20000000000000284
270.969 0.18340000000000245
271.286 0.18340000000000245
271.6 0.11670000000000158
271.914 0.06670000000000087
272.23 0.23340000000000316
272.544 0.18340000000000245
272.859 0.25
273.175 0.23340000000000316
273.489 0.1667000000000023
273.803 0.23340000000000316
274.119 0.23340000000000316
274.433 0.2834000000000003
274.747 0.216700000000003
275.062 0.216700000000003
275.378 0.1667000000000023
275.692 0.216700000000003
276.006 0.216700000000003
276.322 0.3000000000000007
276.636 0.3000000000000007
276.95 0.13340000000000174
277.266 0.23340000000000316
277.58 0.216700000000003
277.894 0.23340000000000316
278.208 0.1667000000000023
278.524 0.26670000000000016
278.838 0.23340000000000316
279.152 0.216700000000003
279.468 0.2834000000000003
279.782 0.15000000000000213
280.096 0.13340000000000174
280.41 0.23340000000000316
280.726 0.25
281.04 0.26670000000000016
281.354 0.216700000000003
281.668 0.26670000000000016
281.983 0.26670000000000016
282.297 0.25
282.611 0.23340000000000316
282.925 0.26670000000000016
283.241 0.25
283.555 0.13340000000000174
283.868 0.31670000000000087
284.182 0.10000000000000142
284.498 0.18340000000000245
284.812 0.23340000000000316
285.126 0.11670000000000158
285.439 0.216700000000003
285.753 0.11670000000000158
286.069 0.26670000000000016
286.383 0.3000000000000007
286.696 0.13340000000000174
287.01 0.31670000000000087
287.326 0.18340000000000245
287.639 0.08340000000000103
287.953 0.18340000000000245
288.267 0.25
288.58 0.23340000000000316
288.896 0.25
289.21 0.18340000000000245
289.523 0.20000000000000284
289.837 0.20000000000000284
290.15 0.18340000000000245
290.466 0.26670000000000016
290.78 0.25
291.093 0.18340000000000245
291.407 0.2834000000000003
291.72 0.18340000000000245
292.034 0.23340000000000316
292.349 0.3000000000000007
292.663 0.3000000000000007
292.976 0.18340000000000245
293.29 0.25
293.603 0.1667000000000023
293.917 0.25
294.232 0.13340000000000174
294.546 0.20000000000000284
294.859 0.18340000000000245
295.172 0.38340000000000174
295.486 0.31670000000000087
295.799 0.15000000000000213
296.113 0.1667000000000023
296.428 0.26670000000000016
296.741 0.23340000000000316
297.055 0.3000000000000007
297.368 0.18340000000000245
297.681 0.25
297.995 0.20000000000000284
298.308 0.11670000000000158
298.621 0.1667000000000023
298.937 0.1667000000000023
299.25 0.18340000000000245
299.563 0.3000000000000007
299.876 0.23340000000000316
300.19 0.25
300.503 0.2834000000000003
300.816 0.1667000000000023
301.129 0.216700000000003
301.442 0.13340000000000174
301.756 0.11670000000000158
302.071 0.23340000000000316
302.384 0.26670000000000016
302.697 0.216700000000003
303.01 0.15000000000000213
303.323 0.05000000000000071
303.637 0.10000000000000142
303.95 0.216700000000003
304.263 0.216700000000003
304.576 0.2834000000000003
304.889 0.18340000000000245
305.202 0.33340000000000103
305.515 0.26670000000000016
305.828 0.18340000000000245
306.141 0.1667000000000023
306.456 0.15000000000000213
306.769 0.15000000000000213
307.082 0.2834000000000003
307.395 0.15000000000000213
307.708 0.1667000000000023
308.021 0.23340000000000316
308.334 0.216700000000003
308.647 0.15000000000000213
308.96 0.3000000000000007
309.273 0.25
309.586 0.18340000000000245
309.899 0.18340000000000245
310.212 0.20000000000000284
310.525 0.20000000000000284
310.838 0.18340000000000245
311.15 0.15000000000000213
311.463 0.13340000000000174
311.776 0.26670000000000016
312.089 0.11670000000000158
312.402 0.2834000000000003
312.715 0.23340000000000316
313.027 0.31670000000000087
313.34 0.25
313.653 0.11670000000000158
