# Created: 2019-11-28 13:05:41.310565
# rshift intensity
76.1738 0.23340000000000316
76.4989 0.23340000000000316
76.824 0.1667000000000023
77.1491 0.18340000000000245
77.4721 0.10000000000000142
77.7972 0.11670000000000158
78.1223 0.13340000000000174
78.4474 0.06670000000000087
78.7724 0.11670000000000158
79.0975 0.06670000000000087
79.4204 0.03340000000000032
79.7454 0.10000000000000142
80.0704 0.08340000000000103
80.3954 0.06670000000000087
80.7204 0.06670000000000087
81.0454 0.06670000000000087
81.3682 0.10000000000000142
81.6931 0.06670000000000087
82.0181 0.11670000000000158
82.343 0.08340000000000103
82.6679 0.03340000000000032
82.9907 0.18340000000000245
83.3156 0.01670000000000016
83.6405 0.05000000000000071
83.9654 0.11670000000000158
84.2903 0.10000000000000142
84.613 0.13340000000000174
84.9378 0.03340000000000032
85.2626 0.1667000000000023
85.5875 0.08340000000000103
85.9101 0.01670000000000016
86.2349 0.06670000000000087
86.5597 0.0
86.8845 0.15000000000000213
87.2093 0.11670000000000158
87.5319 0.08340000000000103
87.8566 0.10000000000000142
88.1814 0.03340000000000032
88.5061 0.0
88.8286 0.10000000000000142
89.1533 0.06670000000000087
89.478 0.06670000000000087
89.8027 0.03340000000000032
90.1252 0.1667000000000023
90.4499 0.0
90.7745 0.10000000000000142
91.0992 0.10000000000000142
91.4216 0.03340000000000032
91.7462 0.08340000000000103
92.0708 0.10000000000000142
92.3954 0.15000000000000213
92.7179 0.08340000000000103
93.0424 0.06670000000000087
93.367 0.1667000000000023
93.6915 0.06670000000000087
94.0139 0.15000000000000213
94.3384 0.08340000000000103
94.6629 0.11670000000000158
94.9853 0.08340000000000103
95.3098 0.10000000000000142
95.6342 0.1667000000000023
95.9587 0.13340000000000174
96.281 0.06670000000000087
96.6055 0.08340000000000103
96.9299 0.08340000000000103
97.2522 0.05000000000000071
97.5766 0.18340000000000245
97.901 0.10000000000000142
98.2232 0.13340000000000174
98.5476 0.08340000000000103
98.8719 0.08340000000000103
99.1942 0.11670000000000158
99.5185 0.10000000000000142
99.8428 0.13340000000000174
100.165 0.11670000000000158
100.489 0.20000000000000284
100.814 0.03340000000000032
101.136 0.0
101.46 0.13340000000000174
101.784 0.0
102.106 0.216700000000003
102.431 0.15000000000000213
102.755 0.11670000000000158
103.077 0.06670000000000087
103.401 0.1667000000000023
103.725 0.216700000000003
104.047 0.0
104.372 0.03340000000000032
104.696 0.1667000000000023
105.018 0.05000000000000071
105.342 0.13340000000000174
105.666 0.25
105.988 0.18340000000000245
106.312 0.1667000000000023
106.634 0.13340000000000174
106.958 0.11670000000000158
107.282 0.18340000000000245
107.604 0.216700000000003
107.928 0.10000000000000142
108.252 0.05000000000000071
108.574 0.18340000000000245
108.898 0.01670000000000016
109.22 0.13340000000000174
109.544 0.11670000000000158
109.868 0.11670000000000158
110.19 0.11670000000000158
110.514 0.10000000000000142
110.836 0.06670000000000087
111.159 0.08340000000000103
111.483 0.15000000000000213
111.805 0.11670000000000158
112.129 0.05000000000000071
112.451 0.08340000000000103
112.775 0.18340000000000245
113.096 0.1667000000000023
113.42 0.11670000000000158
113.744 0.216700000000003
114.066 0.20000000000000284
114.39 0.06670000000000087
114.711 0.10000000000000142
115.035 0.10000000000000142
115.357 0.03340000000000032
115.681 0.216700000000003
116.004 0.08340000000000103
116.326 0.20000000000000284
116.65 0.13340000000000174
116.971 0.08340000000000103
117.295 0.1667000000000023
117.617 0.15000000000000213
117.94 0.20000000000000284
118.262 0.03340000000000032
118.586 0.10000000000000142
118.907 0.18340000000000245
119.231 0.13340000000000174
119.554 0.08340000000000103
119.876 0.1667000000000023
120.199 0.10000000000000142
120.521 0.216700000000003
120.845 0.01670000000000016
121.166 0.15000000000000213
121.49 0.15000000000000213
121.811 0.05000000000000071
122.135 0.15000000000000213
122.456 0.08340000000000103
122.78 0.1667000000000023
123.101 0.13340000000000174
123.424 0.1667000000000023
123.746 0.06670000000000087
124.069 0.01670000000000016
124.391 0.15000000000000213
124.714 0.11670000000000158
125.035 0.10000000000000142
125.359 0.08340000000000103
125.68 0.18340000000000245
126.004 0.13340000000000174
126.325 0.06670000000000087
126.648 0.18340000000000245
126.97 0.18340000000000245
127.291 0.05000000000000071
127.614 0.20000000000000284
127.935 0.10000000000000142
128.259 0.18340000000000245
128.58 0.1667000000000023
128.903 0.10000000000000142
129.224 0.10000000000000142
129.548 0.08340000000000103
129.869 0.11670000000000158
130.192 0.1667000000000023
130.513 0.05000000000000071
130.834 0.23340000000000316
131.158 0.13340000000000174
131.479 0.1667000000000023
131.802 0.13340000000000174
132.123 0.08340000000000103
132.446 0.15000000000000213
132.767 0.08340000000000103
133.09 0.216700000000003
133.411 0.1667000000000023
133.733 0.1667000000000023
134.056 0.13340000000000174
134.377 0.15000000000000213
134.7 0.13340000000000174
135.021 0.15000000000000213
135.342 0.10000000000000142
135.665 0.20000000000000284
135.986 0.23340000000000316
136.309 0.10000000000000142
136.63 0.08340000000000103
136.951 0.11670000000000158
137.274 0.11670000000000158
137.595 0.18340000000000245
137.918 0.08340000000000103
138.238 0.15000000000000213
138.559 0.15000000000000213
138.882 0.216700000000003
139.203 0.20000000000000284
139.526 0.1667000000000023
139.847 0.08340000000000103
140.168 0.06670000000000087
140.491 0.20000000000000284
140.811 0.1667000000000023
141.132 0.216700000000003
141.455 0.08340000000000103
141.776 0.20000000000000284
142.097 0.23340000000000316
142.419 0.13340000000000174
142.74 0.13340000000000174
143.061 0.216700000000003
143.384 0.13340000000000174
143.704 0.15000000000000213
144.027 0.15000000000000213
144.348 0.08340000000000103
144.668 0.20000000000000284
144.991 0.06670000000000087
145.312 0.11670000000000158
145.632 0.05000000000000071
145.955 0.18340000000000245
146.276 0.15000000000000213
146.596 0.11670000000000158
146.917 0.11670000000000158
147.24 0.10000000000000142
147.56 0.15000000000000213
147.881 0.13340000000000174
148.203 0.1667000000000023
148.524 0.23340000000000316
148.844 0.15000000000000213
149.167 0.13340000000000174
149.487 0.11670000000000158
149.808 0.20000000000000284
150.131 0.08340000000000103
150.451 0.11670000000000158
150.771 0.08340000000000103
151.092 0.18340000000000245
151.414 0.13340000000000174
151.735 0.11670000000000158
152.055 0.06670000000000087
152.378 0.20000000000000284
152.698 0.08340000000000103
153.018 0.10000000000000142
153.339 0.10000000000000142
153.661 0.15000000000000213
153.982 0.1667000000000023
154.302 0.1667000000000023
154.622 0.10000000000000142
154.945 0.13340000000000174
155.265 0.26670000000000016
155.585 0.1667000000000023
155.905 0.10000000000000142
156.228 0.18340000000000245
156.548 0.26670000000000016
156.868 0.20000000000000284
157.188 0.20000000000000284
157.511 0.08340000000000103
157.831 0.11670000000000158
158.151 0.216700000000003
158.471 0.10000000000000142
158.794 0.1667000000000023
159.114 0.18340000000000245
159.434 0.15000000000000213
159.754 0.15000000000000213
160.074 0.11670000000000158
160.396 0.20000000000000284
160.717 0.05000000000000071
161.037 0.25
161.357 0.1667000000000023
161.679 0.15000000000000213
161.999 0.1667000000000023
162.319 0.13340000000000174
162.639 0.25
162.959 0.10000000000000142
163.281 0.23340000000000316
163.601 0.1667000000000023
163.921 0.15000000000000213
164.241 0.1667000000000023
164.561 0.13340000000000174
164.881 0.10000000000000142
165.203 0.18340000000000245
165.523 0.18340000000000245
165.843 0.18340000000000245
166.163 0.25
166.483 0.11670000000000158
166.803 0.13340000000000174
167.125 0.20000000000000284
167.445 0.20000000000000284
167.764 0.13340000000000174
168.084 0.08340000000000103
168.404 0.216700000000003
168.724 0.18340000000000245
169.046 0.216700000000003
169.366 0.08340000000000103
169.685 0.18340000000000245
170.005 0.13340000000000174
170.325 0.20000000000000284
170.645 0.18340000000000245
170.964 0.05000000000000071
171.286 0.1667000000000023
171.606 0.10000000000000142
171.926 0.18340000000000245
172.245 0.08340000000000103
172.565 0.1667000000000023
172.885 0.20000000000000284
173.204 0.18340000000000245
173.524 0.05000000000000071
173.846 0.18340000000000245
174.166 0.1667000000000023
174.485 0.11670000000000158
174.805 0.216700000000003
175.124 0.11670000000000158
175.444 0.13340000000000174
175.764 0.1667000000000023
176.083 0.18340000000000245
176.403 0.18340000000000245
176.722 0.15000000000000213
177.044 0.11670000000000158
177.363 0.20000000000000284
177.683 0.20000000000000284
178.002 0.18340000000000245
178.322 0.1667000000000023
178.641 0.23340000000000316
178.961 0.11670000000000158
179.28 0.08340000000000103
179.6 0.23340000000000316
179.919 0.18340000000000245
180.239 0.15000000000000213
180.558 0.20000000000000284
180.877 0.20000000000000284
181.197 0.1667000000000023
181.516 0.13340000000000174
181.838 0.08340000000000103
182.157 0.06670000000000087
182.476 0.11670000000000158
182.796 0.15000000000000213
183.115 0.08340000000000103
183.434 0.18340000000000245
183.754 0.11670000000000158
184.073 0.15000000000000213
184.392 0.20000000000000284
184.712 0.20000000000000284
185.031 0.15000000000000213
185.35 0.18340000000000245
185.669 0.13340000000000174
185.989 0.08340000000000103
186.308 0.18340000000000245
186.627 0.11670000000000158
186.946 0.10000000000000142
187.265 0.26670000000000016
187.585 0.13340000000000174
187.904 0.15000000000000213
188.223 0.15000000000000213
188.542 0.1667000000000023
188.861 0.05000000000000071
189.18 0.20000000000000284
189.499 0.10000000000000142
189.818 0.23340000000000316
190.138 0.08340000000000103
190.457 0.18340000000000245
190.776 0.3500000000000014
191.095 0.08340000000000103
191.414 0.23340000000000316
191.733 0.18340000000000245
192.052 0.1667000000000023
192.371 0.10000000000000142
192.69 0.26670000000000016
193.009 0.20000000000000284
193.328 0.15000000000000213
193.647 0.26670000000000016
193.966 0.20000000000000284
194.285 0.23340000000000316
194.602 0.13340000000000174
194.92 0.1667000000000023
195.239 0.11670000000000158
195.558 0.1667000000000023
195.877 0.23340000000000316
196.196 0.11670000000000158
196.515 0.23340000000000316
196.834 0.10000000000000142
197.153 0.15000000000000213
197.471 0.2834000000000003
197.79 0.1667000000000023
198.109 0.11670000000000158
198.428 0.1667000000000023
198.747 0.216700000000003
199.065 0.1667000000000023
199.382 0.11670000000000158
199.701 0.10000000000000142
200.02 0.20000000000000284
200.338 0.10000000000000142
200.657 0.18340000000000245
200.976 0.16997886683942554
201.295 0.21308445028108736
201.613 0.26776166788320666
201.932 0.18523896831070985
202.251 0.1851003779523701
202.567 0.22796733988739604
202.886 0.19692955568379844
203.204 0.19047170082731313
203.523 0.18340000000000245
203.842 0.1667000000000023
204.16 0.10000000000000142
204.479 0.13340000000000174
204.797 0.1667000000000023
205.114 0.23340000000000316
205.433 0.11670000000000158
205.751 0.01670000000000016
206.07 0.1667000000000023
206.388 0.20000000000000284
206.707 0.20000000000000284
207.025 0.20000000000000284
207.342 0.1667000000000023
207.66 0.23340000000000316
207.979 0.20000000000000284
208.297 0.11670000000000158
208.615 0.26670000000000016
208.934 0.18340000000000245
209.25 0.1667000000000023
209.569 0.13340000000000174
209.887 0.1667000000000023
210.205 0.20000000000000284
210.524 0.1667000000000023
210.842 0.18340000000000245
211.158 0.216700000000003
211.477 0.11670000000000158
211.795 0.2834000000000003
212.113 0.13340000000000174
212.432 0.13340000000000174
212.75 0.3000000000000007
213.066 0.1667000000000023
213.385 0.23340000000000316
213.703 0.20000000000000284
214.021 0.15000000000000213
214.339 0.20000000000000284
214.656 0.20000000000000284
214.974 0.20000000000000284
215.292 0.08340000000000103
215.61 0.15000000000000213
215.926 0.18340000000000245
216.245 0.20000000000000284
216.563 0.15000000000000213
216.881 0.20000000000000284
217.199 0.1667000000000023
217.515 0.2834000000000003
217.833 0.11670000000000158
218.151 0.2834000000000003
218.469 0.31670000000000087
218.785 0.23340000000000316
219.104 0.23340000000000316
219.422 0.1667000000000023
219.74 0.15000000000000213
220.056 0.1667000000000023
220.374 0.216700000000003
220.692 0.15000000000000213
221.01 0.20000000000000284
221.326 0.25
221.644 0.216700000000003
221.962 0.3000000000000007
222.28 0.216700000000003
222.596 0.216700000000003
222.914 0.11670000000000158
223.232 0.18340000000000245
223.547 0.3000000000000007
223.865 0.216700000000003
224.183 0.216700000000003
224.501 0.20000000000000284
224.817 0.1667000000000023
225.135 0.216700000000003
225.453 0.20000000000000284
225.768 0.20000000000000284
226.086 0.20000000000000284
226.404 0.18340000000000245
226.722 0.3000000000000007
227.038 0.20000000000000284
227.355 0.10000000000000142
227.673 0.11670000000000158
227.989 0.08340000000000103
228.307 0.1667000000000023
228.625 0.11670000000000158
228.94 0.13340000000000174
229.258 0.25
229.576 0.13340000000000174
229.891 0.08340000000000103
230.209 0.1667000000000023
230.527 0.20000000000000284
230.842 0.13340000000000174
231.16 0.1667000000000023
231.478 0.216700000000003
231.793 0.10000000000000142
232.111 0.18340000000000245
232.428 0.18340000000000245
232.744 0.18340000000000245
233.062 0.23340000000000316
233.379 0.23340000000000316
233.695 0.23340000000000316
234.012 0.26670000000000016
234.33 0.15000000000000213
234.645 0.33340000000000103
234.963 0.11670000000000158
235.278 0.2834000000000003
235.596 0.25
235.913 0.216700000000003
236.229 0.20000000000000284
236.546 0.15000000000000213
236.864 0.18340000000000245
237.179 0.2834000000000003
237.497 0.25
237.812 0.23340000000000316
238.129 0.20000000000000284
238.447 0.20000000000000284
238.762 0.15000000000000213
239.08 0.08340000000000103
239.395 0.23340000000000316
239.712 0.216700000000003
240.03 0.33340000000000103
240.345 0.26670000000000016
240.662 0.2834000000000003
240.978 0.23340000000000316
241.295 0.216700000000003
241.61 0.3667000000000016
241.927 0.3000000000000007
242.245 0.23340000000000316
242.56 0.2834000000000003
242.877 0.2834000000000003
243.192 0.31670000000000087
243.51 0.2834000000000003
243.825 0.25
244.142 0.23340000000000316
244.459 0.26670000000000016
244.774 0.18340000000000245
245.092 0.216700000000003
245.407 0.3500000000000014
245.724 0.23340000000000316
246.039 0.2834000000000003
246.356 0.13340000000000174
246.671 0.25
246.988 0.20000000000000284
247.303 0.26670000000000016
247.62 0.11670000000000158
247.938 0.15000000000000213
248.253 0.13340000000000174
248.57 0.20000000000000284
248.885 0.33340000000000103
249.202 0.15000000000000213
249.517 0.1667000000000023
249.834 0.23340000000000316
250.149 0.15000000000000213
250.466 0.23340000000000316
250.781 0.23340000000000316
251.098 0.18340000000000245
251.412 0.20000000000000284
251.729 0.15000000000000213
252.044 0.08340000000000103
252.361 0.13340000000000174
252.676 0.18340000000000245
252.993 0.26670000000000016
253.308 0.13340000000000174
253.625 0.25
253.94 0.13340000000000174
254.256 0.15000000000000213
254.571 0.26670000000000016
254.888 0.1667000000000023
255.203 0.20000000000000284
255.518 0.26670000000000016
255.834 0.1667000000000023
256.149 0.18340000000000245
256.466 0.23340000000000316
256.781 0.216700000000003
257.097 0.13340000000000174
257.412 0.216700000000003
257.729 0.18340000000000245
258.044 0.20000000000000284
258.36 0.15000000000000213
258.675 0.23340000000000316
258.99 0.18340000000000245
259.306 0.23340000000000316
259.621 0.18340000000000245
259.938 0.10000000000000142
260.252 0.18340000000000245
260.569 0.13340000000000174
260.883 0.13340000000000174
261.198 0.26670000000000016
261.515 0.1667000000000023
261.829 0.26670000000000016
262.146 0.216700000000003
262.46 0.216700000000003
262.775 0.23340000000000316
263.091 0.20000000000000284
263.406 0.216700000000003
263.723 0.216700000000003
264.037 0.1667000000000023
264.354 0.25
264.668 0.1667000000000023
264.982 0.18340000000000245
265.299 0.1667000000000023
265.613 0.18340000000000245
265.928 0.1667000000000023
266.244 0.216700000000003
266.559 0.23340000000000316
266.875 0.25
267.189 0.15000000000000213
267.504 0.25
267.82 0.1667000000000023
268.134 0.20000000000000284
268.449 0.23340000000000316
268.765 0.20000000000000284
269.079 0.1667000000000023
269.394 0.23340000000000316
269.71 0.20000000000000284
270.024 0.31670000000000087
270.341 0.31670000000000087
270.655 0.18340000000000245
270.969 0.216700000000003
271.286 0.15000000000000213
271.6 0.20000000000000284
271.914 0.3000000000000007
272.23 0.23340000000000316
272.544 0.11670000000000158
272.859 0.1667000000000023
273.175 0.23340000000000316
273.489 0.3000000000000007
273.803 0.3000000000000007
274.119 0.20000000000000284
274.433 0.216700000000003
274.747 0.18340000000000245
275.062 0.26670000000000016
275.378 0.3000000000000007
275.692 0.25
276.006 0.216700000000003
276.322 0.26670000000000016
276.636 0.31670000000000087
276.95 0.18340000000000245
277.266 0.25
277.58 0.3667000000000016
277.894 0.20000000000000284
278.208 0.2834000000000003
278.524 0.26670000000000016
278.838 0.2834000000000003
279.152 0.31670000000000087
279.468 0.18340000000000245
279.782 0.23340000000000316
280.096 0.1667000000000023
280.41 0.26670000000000016
280.726 0.26670000000000016
281.04 0.216700000000003
281.354 0.3000000000000007
281.668 0.13340000000000174
281.983 0.26670000000000016
282.297 0.23340000000000316
282.611 0.26670000000000016
282.925 0.20000000000000284
283.241 0.20000000000000284
283.555 0.20000000000000284
283.868 0.23340000000000316
284.182 0.13340000000000174
284.498 0.3500000000000014
284.812 0.15000000000000213
285.126 0.216700000000003
285.439 0.3000000000000007
285.753 0.13340000000000174
286.069 0.20000000000000284
286.383 0.23340000000000316
286.696 0.1667000000000023
287.01 0.15000000000000213
287.326 0.23340000000000316
287.639 0.23340000000000316
287.953 0.216700000000003
288.267 0.15000000000000213
288.58 0.216700000000003
288.896 0.18340000000000245
289.21 0.1667000000000023
289.523 0.13340000000000174
289.837 0.216700000000003
290.15 0.20000000000000284
290.466 0.23340000000000316
290.78 0.216700000000003
291.093 0.15000000000000213
291.407 0.18340000000000245
291.72 0.216700000000003
292.034 0.3000000000000007
292.349 0.216700000000003
292.663 0.18340000000000245
292.976 0.216700000000003
293.29 0.216700000000003
293.603 0.11670000000000158
293.917 0.26670000000000016
294.232 0.1667000000000023
294.546 0.31670000000000087
294.859 0.10000000000000142
295.172 0.3667000000000016
295.486 0.216700000000003
295.799 0.3000000000000007
296.113 0.20000000000000284
296.428 0.2834000000000003
296.741 0.25
297.055 0.23340000000000316
297.368 0.2834000000000003
297.681 0.33340000000000103
297.995 0.26670000000000016
298.308 0.18340000000000245
298.621 0.13340000000000174
298.937 0.216700000000003
299.25 0.26670000000000016
299.563 0.20000000000000284
299.876 0.25
300.19 0.23340000000000316
300.503 0.216700000000003
300.816 0.23340000000000316
301.129 0.25
301.442 0.13340000000000174
301.756 0.3500000000000014
302.071 0.2834000000000003
302.384 0.23340000000000316
302.697 0.216700000000003
303.01 0.20000000000000284
303.323 0.216700000000003
303.637 0.1667000000000023
303.95 0.23340000000000316
304.263 0.216700000000003
304.576 0.25
304.889 0.20000000000000284
305.202 0.2834000000000003
305.515 0.23340000000000316
305.828 0.23340000000000316
306.141 0.3500000000000014
306.456 0.25
306.769 0.1667000000000023
307.082 0.26670000000000016
307.395 0.20000000000000284
307.708 0.216700000000003
308.021 0.13340000000000174
308.334 0.1667000000000023
308.647 0.13340000000000174
308.96 0.3000000000000007
309.273 0.33340000000000103
309.586 0.26670000000000016
309.899 0.2834000000000003
310.212 0.26670000000000016
310.525 0.31670000000000087
310.838 0.23340000000000316
