# Created: 2019-11-28 13:05:41.011748
# rshift intensity
76.1738 0.21669999999999945
76.4989 0.10000000000000142
76.824 0.33330000000000126
77.1491 0.21669999999999945
77.4721 0.25
77.7972 0.26670000000000016
78.1223 0.33330000000000126
78.4474 0.4499999999999993
78.7724 0.3000000000000007
79.0975 0.4167000000000023
79.4204 0.31670000000000087
79.7454 0.1667000000000023
80.0704 0.1667000000000023
80.3954 0.33330000000000126
80.7204 0.13330000000000197
81.0454 0.18329999999999913
81.3682 0.23329999999999984
81.6931 0.1667000000000023
82.0181 0.03330000000000055
82.343 0.1999999999999993
82.6679 0.15000000000000213
82.9907 0.13330000000000197
83.3156 0.10000000000000142
83.6405 0.05000000000000071
83.9654 0.1999999999999993
84.2903 0.15000000000000213
84.613 0.13330000000000197
84.9378 0.26670000000000016
85.2626 0.11670000000000158
85.5875 0.18329999999999913
85.9101 0.08330000000000126
86.2349 0.03330000000000055
86.5597 0.1999999999999993
86.8845 0.23329999999999984
87.2093 0.08330000000000126
87.5319 0.13330000000000197
87.8566 0.18329999999999913
88.1814 0.23329999999999984
88.5061 0.3000000000000007
88.8286 0.1999999999999993
89.1533 0.18329999999999913
89.478 0.10000000000000142
89.8027 0.08330000000000126
90.1252 0.1667000000000023
90.4499 0.1667000000000023
90.7745 0.18329999999999913
91.0992 0.1999999999999993
91.4216 0.28330000000000055
91.7462 0.05000000000000071
92.0708 0.23329999999999984
92.3954 0.11670000000000158
92.7179 0.13330000000000197
93.0424 0.3000000000000007
93.367 0.13330000000000197
93.6915 0.23329999999999984
94.0139 0.28330000000000055
94.3384 0.1999999999999993
94.6629 0.26670000000000016
94.9853 0.11670000000000158
95.3098 0.15000000000000213
95.6342 0.4167000000000023
95.9587 0.11670000000000158
96.281 0.1667000000000023
96.6055 0.23329999999999984
96.9299 0.15000000000000213
97.2522 0.25
97.5766 0.33330000000000126
97.901 0.0
98.2232 0.2438278760745547
98.5476 0.31098654021196026
98.8719 0.25612282896872784
99.1942 0.29137462732119346
99.5185 0.2507988016439029
99.8428 0.25161976180094925
100.165 0.26505891555830985
100.489 0.2639177803246824
100.814 0.26670000000000016
101.136 0.23329999999999984
101.46 0.1667000000000023
101.784 0.1667000000000023
102.106 0.10000000000000142
102.431 0.3000000000000007
102.755 0.0
103.077 0.1999999999999993
103.401 0.33330000000000126
103.725 0.18329999999999913
104.047 0.28330000000000055
104.372 0.13330000000000197
104.696 0.25
105.018 0.33330000000000126
105.342 0.33330000000000126
105.666 0.3500000000000014
105.988 0.1999999999999993
106.312 0.08330000000000126
106.634 0.26670000000000016
106.958 0.1667000000000023
107.282 0.43329999999999913
107.604 0.21669999999999945
107.928 0.3667000000000016
108.252 0.31670000000000087
108.574 0.1999999999999993
108.898 0.21669999999999945
109.22 0.15000000000000213
109.544 0.15000000000000213
109.868 0.23329999999999984
110.19 0.18329999999999913
110.514 0.21669999999999945
110.836 0.1999999999999993
111.159 0.03330000000000055
111.483 0.33330000000000126
111.805 0.10000000000000142
112.129 0.31670000000000087
112.451 0.15000000000000213
112.775 0.3000000000000007
113.096 0.33330000000000126
113.42 0.33330000000000126
113.744 0.11670000000000158
114.066 0.23329999999999984
114.39 0.13330000000000197
114.711 0.10000000000000142
115.035 0.08330000000000126
115.357 0.23329999999999984
115.681 0.23329999999999984
116.004 0.13330000000000197
116.326 0.26670000000000016
116.65 0.40000000000000213
116.971 0.28330000000000055
117.295 0.23329999999999984
117.617 0.26670000000000016
117.94 0.3000000000000007
118.262 0.25
118.586 0.23329999999999984
118.907 0.31670000000000087
119.231 0.23329999999999984
119.554 0.1667000000000023
119.876 0.28330000000000055
120.199 0.26670000000000016
120.521 0.1999999999999993
120.845 0.31670000000000087
121.166 0.1999999999999993
121.49 0.18329999999999913
121.811 0.3500000000000014
122.135 0.28330000000000055
122.456 0.5167000000000002
122.78 0.08330000000000126
123.101 0.23329999999999984
123.424 0.28330000000000055
123.746 0.21669999999999945
124.069 0.25
124.391 0.31670000000000087
124.714 0.1667000000000023
125.035 0.31670000000000087
125.359 0.23329999999999984
125.68 0.3000000000000007
126.004 0.28330000000000055
126.325 0.25
126.648 0.3500000000000014
126.97 0.23329999999999984
127.291 0.31670000000000087
127.614 0.26670000000000016
127.935 0.25
128.259 0.1667000000000023
128.58 0.383300000000002
128.903 0.3500000000000014
129.224 0.1999999999999993
129.548 0.25
129.869 0.26670000000000016
130.192 0.1999999999999993
130.513 0.33330000000000126
130.834 0.25
131.158 0.21669999999999945
131.479 0.3667000000000016
131.802 0.26670000000000016
132.123 0.13330000000000197
132.446 0.31670000000000087
132.767 0.40000000000000213
133.09 0.31670000000000087
133.411 0.3667000000000016
133.733 0.25
134.056 0.33330000000000126
134.377 0.18329999999999913
134.7 0.3000000000000007
135.021 0.23329999999999984
135.342 0.33330000000000126
135.665 0.25
135.986 0.31670000000000087
136.309 0.15000000000000213
136.63 0.1667000000000023
136.951 0.1999999999999993
137.274 0.21669999999999945
137.595 0.26670000000000016
137.918 0.31670000000000087
138.238 0.18329999999999913
138.559 0.28330000000000055
138.882 0.31670000000000087
139.203 0.383300000000002
139.526 0.3667000000000016
139.847 0.26670000000000016
140.168 0.4167000000000023
140.491 0.28330000000000055
140.811 0.25
141.132 0.26670000000000016
141.455 0.1667000000000023
141.776 0.383300000000002
142.097 0.3000000000000007
142.419 0.31670000000000087
142.74 0.26670000000000016
143.061 0.25
143.384 0.3667000000000016
143.704 0.3667000000000016
144.027 0.3000000000000007
144.348 0.25
144.668 0.3000000000000007
144.991 0.5
145.312 0.26670000000000016
145.632 0.28330000000000055
145.955 0.28330000000000055
146.276 0.3667000000000016
146.596 0.3000000000000007
146.917 0.3500000000000014
147.24 0.11670000000000158
147.56 0.31670000000000087
147.881 0.33330000000000126
148.203 0.23329999999999984
148.524 0.1999999999999993
148.844 0.33330000000000126
149.167 0.25
149.487 0.33330000000000126
149.808 0.10000000000000142
150.131 0.26670000000000016
150.451 0.3000000000000007
150.771 0.3667000000000016
151.092 0.26670000000000016
151.414 0.23329999999999984
151.735 0.25
152.055 0.28330000000000055
152.378 0.3500000000000014
152.698 0.31670000000000087
153.018 0.383300000000002
153.339 0.4499999999999993
153.661 0.3667000000000016
153.982 0.23329999999999984
154.302 0.33330000000000126
154.622 0.1667000000000023
154.945 0.21669999999999945
155.265 0.40000000000000213
155.585 0.4167000000000023
155.905 0.31670000000000087
156.228 0.33330000000000126
156.548 0.3000000000000007
156.868 0.28330000000000055
157.188 0.21669999999999945
157.511 0.40000000000000213
157.831 0.28330000000000055
158.151 0.31670000000000087
158.471 0.03330000000000055
158.794 0.40000000000000213
159.114 0.23329999999999984
159.434 0.28330000000000055
159.754 0.33330000000000126
160.074 0.26670000000000016
160.396 0.31670000000000087
160.717 0.28330000000000055
161.037 0.25
161.357 0.1999999999999993
161.679 0.31670000000000087
161.999 0.26670000000000016
162.319 0.1999999999999993
162.639 0.31670000000000087
162.959 0.5167000000000002
163.281 0.3000000000000007
163.601 0.3000000000000007
163.921 0.3000000000000007
164.241 0.31670000000000087
164.561 0.3000000000000007
164.881 0.4499999999999993
165.203 0.33330000000000126
165.523 0.40000000000000213
165.843 0.43329999999999913
166.163 0.48329999999999984
166.483 0.4167000000000023
166.803 0.33330000000000126
167.125 0.33330000000000126
167.445 0.33330000000000126
167.764 0.46669999999999945
168.084 0.4499999999999993
168.404 0.23329999999999984
168.724 0.15000000000000213
169.046 0.31670000000000087
169.366 0.28330000000000055
169.685 0.33330000000000126
170.005 0.4167000000000023
170.325 0.5667000000000009
170.645 0.48329999999999984
170.964 0.46669999999999945
171.286 0.383300000000002
171.606 0.26670000000000016
171.926 0.5
172.245 0.4499999999999993
172.565 0.4499999999999993
172.885 0.31670000000000087
173.204 0.5
173.524 0.21669999999999945
173.846 0.5167000000000002
174.166 0.31670000000000087
174.485 0.40000000000000213
174.805 0.28330000000000055
175.124 0.33330000000000126
175.444 0.25
175.764 0.33330000000000126
176.083 0.25
176.403 0.383300000000002
176.722 0.4499999999999993
177.044 0.633300000000002
177.363 0.40000000000000213
177.683 0.4167000000000023
178.002 0.31670000000000087
178.322 0.23329999999999984
178.641 0.1999999999999993
178.961 0.23329999999999984
179.28 0.3500000000000014
179.6 0.6000000000000014
179.919 0.3500000000000014
180.239 0.31670000000000087
180.558 0.48329999999999984
180.877 0.3000000000000007
181.197 0.1999999999999993
181.516 0.31670000000000087
181.838 0.40000000000000213
182.157 0.43329999999999913
182.476 0.28330000000000055
182.796 0.23329999999999984
183.115 0.18329999999999913
183.434 0.3667000000000016
183.754 0.5333000000000006
184.073 0.4167000000000023
184.392 0.31670000000000087
184.712 0.21669999999999945
185.031 0.28330000000000055
185.35 0.40000000000000213
185.669 0.3500000000000014
185.989 0.1999999999999993
186.308 0.1667000000000023
186.627 0.31670000000000087
186.946 0.21669999999999945
187.265 0.21669999999999945
187.585 0.3500000000000014
187.904 0.43329999999999913
188.223 0.08330000000000126
188.542 0.1999999999999993
188.861 0.33330000000000126
189.18 0.40000000000000213
189.499 0.3667000000000016
189.818 0.40000000000000213
190.138 0.23329999999999984
190.457 0.4499999999999993
190.776 0.3667000000000016
191.095 0.33330000000000126
191.414 0.383300000000002
191.733 0.6000000000000014
192.052 0.3667000000000016
192.371 0.3667000000000016
192.69 0.4499999999999993
193.009 0.40000000000000213
193.328 0.33330000000000126
193.647 0.4499999999999993
193.966 0.21669999999999945
194.285 0.31670000000000087
194.602 0.25
194.92 0.3667000000000016
195.239 0.48329999999999984
195.558 0.40000000000000213
195.877 0.13330000000000197
196.196 0.43329999999999913
196.515 0.383300000000002
196.834 0.3500000000000014
197.153 0.43329999999999913
197.471 0.28330000000000055
197.79 0.5500000000000007
198.109 0.4499999999999993
198.428 0.5167000000000002
198.747 0.40000000000000213
199.065 0.3500000000000014
199.382 0.3667000000000016
199.701 0.31670000000000087
200.02 0.46669999999999945
200.338 0.3000000000000007
200.657 0.31670000000000087
200.976 0.383300000000002
201.295 0.46669999999999945
201.613 0.5833000000000013
201.932 0.28330000000000055
202.251 0.4167000000000023
202.567 0.40000000000000213
202.886 0.26670000000000016
203.204 0.3500000000000014
203.523 0.3500000000000014
203.842 0.48329999999999984
204.16 0.48329999999999984
204.479 0.4499999999999993
204.797 0.75
205.114 0.5
205.433 0.5333000000000006
205.751 0.5667000000000009
206.07 0.28330000000000055
206.388 0.6000000000000014
206.707 0.33330000000000126
207.025 0.33330000000000126
207.342 0.4499999999999993
207.66 0.383300000000002
207.979 0.40000000000000213
208.297 0.43329999999999913
208.615 0.31670000000000087
208.934 0.31670000000000087
209.25 0.383300000000002
209.569 0.43329999999999913
209.887 0.4167000000000023
210.205 0.6000000000000014
210.524 0.383300000000002
210.842 0.46669999999999945
211.158 0.26670000000000016
211.477 0.40000000000000213
211.795 0.5
212.113 0.46669999999999945
212.432 0.383300000000002
212.75 0.5667000000000009
213.066 0.46669999999999945
213.385 0.25
213.703 0.4499999999999993
214.021 0.40000000000000213
214.339 0.5333000000000006
214.656 0.48329999999999984
214.974 0.5
215.292 0.3500000000000014
215.61 0.48329999999999984
215.926 0.3000000000000007
216.245 0.26670000000000016
216.563 0.3000000000000007
216.881 0.5667000000000009
217.199 0.3667000000000016
217.515 0.5167000000000002
217.833 0.4167000000000023
218.151 0.4499999999999993
218.469 0.3667000000000016
218.785 0.4499999999999993
219.104 0.3500000000000014
219.422 0.46669999999999945
219.74 0.383300000000002
220.056 0.6167000000000016
220.374 0.5500000000000007
220.692 0.6000000000000014
221.01 0.25
221.326 0.3667000000000016
221.644 0.383300000000002
221.962 0.40000000000000213
222.28 0.3667000000000016
222.596 0.5
222.914 0.48329999999999984
223.232 0.43329999999999913
223.547 0.26670000000000016
223.865 0.31670000000000087
224.183 0.4499999999999993
224.501 0.5333000000000006
224.817 0.43329999999999913
225.135 0.4167000000000023
225.453 0.4167000000000023
225.768 0.40000000000000213
226.086 0.40000000000000213
226.404 0.5500000000000007
226.722 0.5333000000000006
227.038 0.5333000000000006
227.355 0.6167000000000016
227.673 0.40000000000000213
227.989 0.3667000000000016
228.307 0.633300000000002
228.625 0.5
228.94 0.5
229.258 0.5667000000000009
229.576 0.633300000000002
229.891 0.4167000000000023
230.209 0.3667000000000016
230.527 0.4303452905178027
230.842 0.42729082814992836
231.16 0.4267540694158285
231.478 0.42344890876351826
231.793 0.4441373272668869
232.111 0.44095447415227795
232.428 0.43304259429768877
232.744 0.3667000000000016
233.062 0.383300000000002
233.379 0.43329999999999913
233.695 0.383300000000002
234.012 0.5500000000000007
234.33 0.3667000000000016
234.645 0.4499999999999993
234.963 0.5167000000000002
235.278 0.28330000000000055
235.596 0.4499999999999993
235.913 0.43329999999999913
236.229 0.5
236.546 0.40000000000000213
236.864 0.383300000000002
237.179 0.3667000000000016
237.497 0.46669999999999945
237.812 0.40000000000000213
238.129 0.40000000000000213
238.447 0.6167000000000016
238.762 0.46669999999999945
239.08 0.48329999999999984
239.395 0.5667000000000009
239.712 0.43329999999999913
240.03 0.31670000000000087
240.345 0.5333000000000006
240.662 0.40000000000000213
240.978 0.6000000000000014
241.295 0.40000000000000213
241.61 0.46669999999999945
241.927 0.5833000000000013
242.245 0.4167000000000023
242.56 0.6000000000000014
242.877 0.5167000000000002
243.192 0.3667000000000016
243.51 0.43329999999999913
243.825 0.6000000000000014
244.142 0.5667000000000009
244.459 0.5667000000000009
244.774 0.5
245.092 0.5
245.407 0.5
245.724 0.5167000000000002
246.039 0.4499999999999993
246.356 0.40000000000000213
246.671 0.5
246.988 0.3500000000000014
247.303 0.48329999999999984
247.62 0.40000000000000213
247.938 0.4167000000000023
248.253 0.43329999999999913
248.57 0.33330000000000126
248.885 0.40000000000000213
249.202 0.5500000000000007
249.517 0.6000000000000014
249.834 0.5
250.149 0.48329999999999984
250.466 0.5
250.781 0.5
251.098 0.4499999999999993
251.412 0.40000000000000213
251.729 0.4167000000000023
252.044 0.5167000000000002
252.361 0.5667000000000009
252.676 0.6000000000000014
252.993 0.23329999999999984
253.308 0.46669999999999945
253.625 0.43329999999999913
253.94 0.4499999999999993
254.256 0.26670000000000016
254.571 0.6000000000000014
254.888 0.6000000000000014
255.203 0.25
255.518 0.633300000000002
255.834 0.5
256.149 0.46669999999999945
256.466 0.46669999999999945
256.781 0.6167000000000016
257.097 0.3000000000000007
257.412 0.5
257.729 0.40000000000000213
258.044 0.6999999999999993
258.36 0.3667000000000016
258.675 0.43329999999999913
258.99 0.5833000000000013
259.306 0.3500000000000014
259.621 0.5167000000000002
259.938 0.46669999999999945
260.252 0.5167000000000002
260.569 0.4499999999999993
260.883 0.5
261.198 0.46669999999999945
261.515 0.4499999999999993
261.829 0.5167000000000002
262.146 0.5333000000000006
262.46 0.5
262.775 0.46669999999999945
263.091 0.3667000000000016
263.406 0.43329999999999913
263.723 0.40000000000000213
264.037 0.383300000000002
264.354 0.46669999999999945
264.668 0.4167000000000023
264.982 0.46669999999999945
265.299 0.4499999999999993
265.613 0.48329999999999984
265.928 0.5333000000000006
266.244 0.33330000000000126
266.559 0.6167000000000016
266.875 0.46669999999999945
267.189 0.3667000000000016
267.504 0.3667000000000016
267.82 0.5167000000000002
268.134 0.31670000000000087
268.449 0.3500000000000014
268.765 0.383300000000002
269.079 0.6999999999999993
269.394 0.28330000000000055
269.71 0.4499999999999993
270.024 0.43329999999999913
270.341 0.43329999999999913
270.655 0.5667000000000009
270.969 0.43329999999999913
271.286 0.3500000000000014
271.6 0.5833000000000013
271.914 0.5667000000000009
272.23 0.6667000000000023
272.544 0.23329999999999984
272.859 0.5333000000000006
273.175 0.5500000000000007
273.489 0.4167000000000023
273.803 0.5500000000000007
274.119 0.46669999999999945
274.433 0.5833000000000013
274.747 0.48329999999999984
275.062 0.40000000000000213
275.378 0.633300000000002
275.692 0.46669999999999945
276.006 0.43329999999999913
276.322 0.43329999999999913
276.636 0.6667000000000023
276.95 0.5500000000000007
277.266 0.6000000000000014
277.58 0.3667000000000016
277.894 0.5
278.208 0.5667000000000009
278.524 0.6167000000000016
278.838 0.633300000000002
279.152 0.5667000000000009
279.468 0.5167000000000002
279.782 0.383300000000002
280.096 0.33330000000000126
280.41 0.3667000000000016
280.726 0.6000000000000014
281.04 0.5
281.354 0.5167000000000002
281.668 0.5333000000000006
281.983 0.48329999999999984
282.297 0.6999999999999993
282.611 0.5
282.925 0.5500000000000007
283.241 0.25
283.555 0.5
283.868 0.5333000000000006
284.182 0.5167000000000002
284.498 0.4167000000000023
284.812 0.5833000000000013
285.126 0.5333000000000006
285.439 0.633300000000002
285.753 0.4167000000000023
286.069 0.5333000000000006
286.383 0.5333000000000006
286.696 0.5500000000000007
287.01 0.46669999999999945
287.326 0.6999999999999993
287.639 0.5167000000000002
287.953 0.4499999999999993
288.267 0.5500000000000007
288.58 0.46669999999999945
288.896 0.5
289.21 0.5167000000000002
289.523 0.5
289.837 0.5
290.15 0.5333000000000006
290.466 0.5167000000000002
290.78 0.5500000000000007
291.093 0.48329999999999984
291.407 0.26670000000000016
291.72 0.46669999999999945
292.034 0.3500000000000014
292.349 0.6167000000000016
292.663 0.3500000000000014
292.976 0.5167000000000002
293.29 0.46669999999999945
293.603 0.6832999999999991
293.917 0.48329999999999984
294.232 0.40000000000000213
294.546 0.40000000000000213
294.859 0.5833000000000013
295.172 0.43329999999999913
295.486 0.33330000000000126
295.799 0.3000000000000007
296.113 0.6167000000000016
296.428 0.31670000000000087
296.741 0.6667000000000023
297.055 0.46669999999999945
297.368 0.4167000000000023
297.681 0.7833000000000006
297.995 0.48329999999999984
298.308 0.3667000000000016
298.621 0.4499999999999993
298.937 0.43329999999999913
299.25 0.6000000000000014
299.563 0.7332999999999998
299.876 0.4499999999999993
300.19 0.46669999999999945
300.503 0.1999999999999993
300.816 0.6667000000000023
301.129 0.5333000000000006
301.442 0.5667000000000009
301.756 0.26670000000000016
302.071 0.5
302.384 0.5
302.697 0.4499999999999993
303.01 0.3667000000000016
303.323 0.6000000000000014
303.637 0.5167000000000002
303.95 0.43329999999999913
304.263 0.43329999999999913
304.576 0.3500000000000014
304.889 0.43329999999999913
305.202 0.28330000000000055
305.515 0.633300000000002
305.828 0.3667000000000016
306.141 0.5167000000000002
306.456 0.48329999999999984
306.769 0.633300000000002
307.082 0.5500000000000007
307.395 0.25
307.708 0.43329999999999913
308.021 0.40000000000000213
308.334 0.5833000000000013
308.647 0.48329999999999984
308.96 0.4499999999999993
309.273 0.5500000000000007
309.586 0.4499999999999993
309.899 0.5500000000000007
310.212 0.46669999999999945
310.525 0.383300000000002
310.838 0.6667000000000023
311.15 0.43329999999999913
311.463 0.5667000000000009
311.776 0.5167000000000002
312.089 0.40000000000000213
312.402 0.6000000000000014
312.715 0.40000000000000213
313.027 0.5500000000000007
313.34 0.6000000000000014
313.653 0.48329999999999984
313.966 0.6000000000000014
314.278 0.43329999999999913
314.591 0.46669999999999945
314.904 0.6167000000000016
315.217 0.40000000000000213
315.529 0.5167000000000002
315.842 0.48329999999999984
316.155 0.5833000000000013
316.467 0.5167000000000002
316.78 0.43329999999999913
317.093 0.6167000000000016
317.405 0.5167000000000002
317.718 0.40000000000000213
318.031 0.48329999999999984
