# Created: 2019-11-28 13:05:40.704475
# rshift intensity
76.1738 0.25
76.4989 0.31670000000000087
76.824 0.23340000000000316
77.1491 0.26670000000000016
77.4721 0.3000000000000007
77.7972 0.20000000000000284
78.1223 0.11670000000000158
78.4474 0.216700000000003
78.7724 0.1667000000000023
79.0975 0.10000000000000142
79.4204 0.08340000000000103
79.7454 0.1667000000000023
80.0704 0.13340000000000174
80.3954 0.08340000000000103
80.7204 0.10000000000000142
81.0454 0.13340000000000174
81.3682 0.13340000000000174
81.6931 0.13340000000000174
82.0181 0.11670000000000158
82.343 0.20000000000000284
82.6679 0.06670000000000087
82.9907 0.10000000000000142
83.3156 0.1667000000000023
83.6405 0.08340000000000103
83.9654 0.1667000000000023
84.2903 0.0
84.613 0.13340000000000174
84.9378 0.18340000000000245
85.2626 0.10000000000000142
85.5875 0.08340000000000103
85.9101 0.18340000000000245
86.2349 0.15000000000000213
86.5597 0.10000000000000142
86.8845 0.03340000000000032
87.2093 0.08340000000000103
87.5319 0.10000000000000142
87.8566 0.15000000000000213
88.1814 0.1667000000000023
88.5061 0.08340000000000103
88.8286 0.20000000000000284
89.1533 0.25
89.478 0.1667000000000023
89.8027 0.10000000000000142
90.1252 0.10000000000000142
90.4499 0.13340000000000174
90.7745 0.15000000000000213
91.0992 0.1667000000000023
91.4216 0.1667000000000023
91.7462 0.08340000000000103
92.0708 0.15000000000000213
92.3954 0.10000000000000142
92.7179 0.13340000000000174
93.0424 0.08340000000000103
93.367 0.11670000000000158
93.6915 0.216700000000003
94.0139 0.11670000000000158
94.3384 0.13340000000000174
94.6629 0.15000000000000213
94.9853 0.08340000000000103
95.3098 0.13340000000000174
95.6342 0.08340000000000103
95.9587 0.216700000000003
96.281 0.10000000000000142
96.6055 0.20000000000000284
96.9299 0.20000000000000284
97.2522 0.06670000000000087
97.5766 0.15000000000000213
97.901 0.11670000000000158
98.2232 0.13340000000000174
98.5476 0.11670000000000158
98.8719 0.10000000000000142
99.1942 0.11670000000000158
99.5185 0.20000000000000284
99.8428 0.11670000000000158
100.165 0.11670000000000158
100.489 0.06670000000000087
100.814 0.216700000000003
101.136 0.23340000000000316
101.46 0.11670000000000158
101.784 0.10000000000000142
102.106 0.18340000000000245
102.431 0.216700000000003
102.755 0.15000000000000213
103.077 0.15000000000000213
103.401 0.216700000000003
103.725 0.06670000000000087
104.047 0.216700000000003
104.372 0.06670000000000087
104.696 0.13340000000000174
105.018 0.20000000000000284
105.342 0.15000000000000213
105.666 0.1667000000000023
105.988 0.08340000000000103
106.312 0.13340000000000174
106.634 0.18340000000000245
106.958 0.25
107.282 0.26670000000000016
107.604 0.11670000000000158
107.928 0.08340000000000103
108.252 0.06670000000000087
108.574 0.20000000000000284
108.898 0.08340000000000103
109.22 0.08340000000000103
109.544 0.10000000000000142
109.868 0.08340000000000103
110.19 0.10000000000000142
110.514 0.10000000000000142
110.836 0.06670000000000087
111.159 0.06670000000000087
111.483 0.15000000000000213
111.805 0.15000000000000213
112.129 0.216700000000003
112.451 0.1667000000000023
112.775 0.11670000000000158
113.096 0.11670000000000158
113.42 0.10000000000000142
113.744 0.11670000000000158
114.066 0.13340000000000174
114.39 0.25
114.711 0.15000000000000213
115.035 0.15000000000000213
115.357 0.10000000000000142
115.681 0.08340000000000103
116.004 0.25
116.326 0.11670000000000158
116.65 0.15000000000000213
116.971 0.23340000000000316
117.295 0.26670000000000016
117.617 0.1667000000000023
117.94 0.08340000000000103
118.262 0.15000000000000213
118.586 0.13340000000000174
118.907 0.13340000000000174
119.231 0.216700000000003
119.554 0.15000000000000213
119.876 0.13340000000000174
120.199 0.20000000000000284
120.521 0.13340000000000174
120.845 0.15000000000000213
121.166 0.10000000000000142
121.49 0.06670000000000087
121.811 0.11670000000000158
122.135 0.15000000000000213
122.456 0.10000000000000142
122.78 0.1667000000000023
123.101 0.18340000000000245
123.424 0.18340000000000245
123.746 0.05000000000000071
124.069 0.15000000000000213
124.391 0.06670000000000087
124.714 0.216700000000003
125.035 0.13340000000000174
125.359 0.1667000000000023
125.68 0.15000000000000213
126.004 0.1667000000000023
126.325 0.18340000000000245
126.648 0.1667000000000023
126.97 0.20000000000000284
127.291 0.11670000000000158
127.614 0.11670000000000158
127.935 0.15000000000000213
128.259 0.216700000000003
128.58 0.15000000000000213
128.903 0.25
129.224 0.20000000000000284
129.548 0.31670000000000087
129.869 0.08340000000000103
130.192 0.11670000000000158
130.513 0.13340000000000174
130.834 0.11670000000000158
131.158 0.18340000000000245
131.479 0.216700000000003
131.802 0.15000000000000213
132.123 0.25
132.446 0.10000000000000142
132.767 0.13340000000000174
133.09 0.20000000000000284
133.411 0.18340000000000245
133.733 0.216700000000003
134.056 0.20000000000000284
134.377 0.15000000000000213
134.7 0.25
135.021 0.11670000000000158
135.342 0.1667000000000023
135.665 0.18340000000000245
135.986 0.11670000000000158
136.309 0.18340000000000245
136.63 0.216700000000003
136.951 0.06670000000000087
137.274 0.216700000000003
137.595 0.1667000000000023
137.918 0.11670000000000158
138.238 0.20000000000000284
138.559 0.216700000000003
138.882 0.13340000000000174
139.203 0.10000000000000142
139.526 0.08340000000000103
139.847 0.15000000000000213
140.168 0.20000000000000284
140.491 0.10000000000000142
140.811 0.13340000000000174
141.132 0.03340000000000032
141.455 0.20000000000000284
141.776 0.06670000000000087
142.097 0.2834000000000003
142.419 0.10000000000000142
142.74 0.216700000000003
143.061 0.18340000000000245
143.384 0.05000000000000071
143.704 0.216700000000003
144.027 0.33340000000000103
144.348 0.11670000000000158
144.668 0.15000000000000213
144.991 0.13340000000000174
145.312 0.1667000000000023
145.632 0.13340000000000174
145.955 0.18340000000000245
146.276 0.10000000000000142
146.596 0.216700000000003
146.917 0.15000000000000213
147.24 0.15000000000000213
147.56 0.11670000000000158
147.881 0.1667000000000023
148.203 0.1667000000000023
148.524 0.15000000000000213
148.844 0.15000000000000213
149.167 0.13340000000000174
149.487 0.15000000000000213
149.808 0.15000000000000213
150.131 0.23340000000000316
150.451 0.1667000000000023
150.771 0.15000000000000213
151.092 0.15000000000000213
151.414 0.11670000000000158
151.735 0.216700000000003
152.055 0.15000000000000213
152.378 0.06670000000000087
152.698 0.15000000000000213
153.018 0.1667000000000023
153.339 0.18340000000000245
153.661 0.11670000000000158
153.982 0.3000000000000007
154.302 0.11670000000000158
154.622 0.10000000000000142
154.945 0.15000000000000213
155.265 0.23340000000000316
155.585 0.1667000000000023
155.905 0.15000000000000213
156.228 0.18340000000000245
156.548 0.03340000000000032
156.868 0.13340000000000174
157.188 0.26670000000000016
157.511 0.20000000000000284
157.831 0.05000000000000071
158.151 0.10000000000000142
158.471 0.13340000000000174
158.794 0.15000000000000213
159.114 0.11670000000000158
159.434 0.15000000000000213
159.754 0.15000000000000213
160.074 0.10000000000000142
160.396 0.10000000000000142
160.717 0.1667000000000023
161.037 0.13340000000000174
161.357 0.18340000000000245
161.679 0.23340000000000316
161.999 0.13340000000000174
162.319 0.20000000000000284
162.639 0.20000000000000284
162.959 0.18340000000000245
163.281 0.20000000000000284
163.601 0.23340000000000316
163.921 0.15000000000000213
164.241 0.18340000000000245
164.561 0.15000000000000213
164.881 0.08340000000000103
165.203 0.23340000000000316
165.523 0.1667000000000023
165.843 0.13340000000000174
166.163 0.3000000000000007
166.483 0.08340000000000103
166.803 0.13340000000000174
167.125 0.1667000000000023
167.445 0.1667000000000023
167.764 0.13340000000000174
168.084 0.25
168.404 0.11670000000000158
168.724 0.11670000000000158
169.046 0.20000000000000284
169.366 0.18340000000000245
169.685 0.216700000000003
170.005 0.13340000000000174
170.325 0.13340000000000174
170.645 0.1667000000000023
170.964 0.15000000000000213
171.286 0.10000000000000142
171.606 0.25
171.926 0.11670000000000158
172.245 0.1667000000000023
172.565 0.06670000000000087
172.885 0.1667000000000023
173.204 0.1667000000000023
173.524 0.15000000000000213
173.846 0.15000000000000213
174.166 0.18340000000000245
174.485 0.20000000000000284
174.805 0.25
175.124 0.10000000000000142
175.444 0.13340000000000174
175.764 0.18340000000000245
176.083 0.06670000000000087
176.403 0.1667000000000023
176.722 0.08340000000000103
177.044 0.1667000000000023
177.363 0.18340000000000245
177.683 0.15000000000000213
178.002 0.15000000000000213
178.322 0.20000000000000284
178.641 0.25
178.961 0.25
179.28 0.26670000000000016
179.6 0.3000000000000007
179.919 0.18340000000000245
180.239 0.13340000000000174
180.558 0.1667000000000023
180.877 0.20000000000000284
181.197 0.2834000000000003
181.516 0.20000000000000284
181.838 0.216700000000003
182.157 0.18340000000000245
182.476 0.11670000000000158
182.796 0.216700000000003
183.115 0.1667000000000023
183.434 0.25
183.754 0.10000000000000142
184.073 0.13340000000000174
184.392 0.13340000000000174
184.712 0.15000000000000213
185.031 0.26670000000000016
185.35 0.06670000000000087
185.669 0.23340000000000316
185.989 0.2834000000000003
186.308 0.1667000000000023
186.627 0.25
186.946 0.08340000000000103
187.265 0.23340000000000316
187.585 0.13340000000000174
187.904 0.11670000000000158
188.223 0.1667000000000023
188.542 0.15000000000000213
188.861 0.216700000000003
189.18 0.10000000000000142
189.499 0.25
189.818 0.1667000000000023
190.138 0.10000000000000142
190.457 0.08340000000000103
190.776 0.1667000000000023
191.095 0.08340000000000103
191.414 0.13340000000000174
191.733 0.13340000000000174
192.052 0.216700000000003
192.371 0.18340000000000245
192.69 0.25
193.009 0.13340000000000174
193.328 0.10000000000000142
193.647 0.2834000000000003
193.966 0.06670000000000087
194.285 0.13340000000000174
194.602 0.26670000000000016
194.92 0.1667000000000023
195.239 0.15000000000000213
195.558 0.15000000000000213
195.877 0.216700000000003
196.196 0.1667000000000023
196.515 0.05000000000000071
196.834 0.1667000000000023
197.153 0.216700000000003
197.471 0.08340000000000103
197.79 0.1667000000000023
198.109 0.20000000000000284
198.428 0.18340000000000245
198.747 0.216700000000003
199.065 0.33340000000000103
199.382 0.1667000000000023
199.701 0.15000000000000213
200.02 0.25
200.338 0.20000000000000284
200.657 0.216700000000003
200.976 0.216700000000003
201.295 0.15000000000000213
201.613 0.1667000000000023
201.932 0.20000000000000284
202.251 0.20000000000000284
202.567 0.18340000000000245
202.886 0.216700000000003
203.204 0.18340000000000245
203.523 0.1667000000000023
203.842 0.3000000000000007
204.16 0.23340000000000316
204.479 0.08340000000000103
204.797 0.13340000000000174
205.114 0.216700000000003
205.433 0.15000000000000213
205.751 0.23340000000000316
206.07 0.10000000000000142
206.388 0.26670000000000016
206.707 0.216700000000003
207.025 0.13340000000000174
207.342 0.216700000000003
207.66 0.216700000000003
207.979 0.216700000000003
208.297 0.1667000000000023
208.615 0.23340000000000316
208.934 0.18340000000000245
209.25 0.216700000000003
209.569 0.13340000000000174
209.887 0.11670000000000158
210.205 0.25
210.524 0.25
210.842 0.25
211.158 0.216700000000003
211.477 0.18340000000000245
211.795 0.25
212.113 0.15000000000000213
212.432 0.1667000000000023
212.75 0.18340000000000245
213.066 0.18992767014536227
213.385 0.1883608062101949
213.703 0.18869876603777058
214.021 0.1870252346835244
214.339 0.18862450864050473
214.656 0.18852601817002324
214.974 0.1878703128531356
215.292 0.23340000000000316
215.61 0.1667000000000023
215.926 0.23340000000000316
216.245 0.18340000000000245
216.563 0.1667000000000023
216.881 0.31670000000000087
217.199 0.20000000000000284
217.515 0.23340000000000316
217.833 0.1667000000000023
218.151 0.13340000000000174
218.469 0.20000000000000284
218.785 0.18340000000000245
219.104 0.216700000000003
219.422 0.13340000000000174
219.74 0.10000000000000142
220.056 0.05000000000000071
220.374 0.26670000000000016
220.692 0.23340000000000316
221.01 0.20000000000000284
221.326 0.11670000000000158
221.644 0.216700000000003
221.962 0.18340000000000245
222.28 0.26670000000000016
222.596 0.20000000000000284
222.914 0.13340000000000174
223.232 0.18340000000000245
223.547 0.25
223.865 0.216700000000003
224.183 0.13340000000000174
224.501 0.31670000000000087
224.817 0.1667000000000023
225.135 0.20000000000000284
225.453 0.08340000000000103
225.768 0.26670000000000016
226.086 0.216700000000003
226.404 0.20000000000000284
226.722 0.38340000000000174
227.038 0.26670000000000016
227.355 0.26670000000000016
227.673 0.20000000000000284
227.989 0.18340000000000245
228.307 0.26670000000000016
228.625 0.23340000000000316
228.94 0.18340000000000245
229.258 0.2834000000000003
229.576 0.23340000000000316
229.891 0.20000000000000284
230.209 0.1667000000000023
230.527 0.20000000000000284
230.842 0.13340000000000174
231.16 0.26670000000000016
231.478 0.23340000000000316
231.793 0.23340000000000316
232.111 0.2834000000000003
232.428 0.23340000000000316
232.744 0.20000000000000284
233.062 0.2834000000000003
233.379 0.26670000000000016
233.695 0.20000000000000284
234.012 0.1667000000000023
234.33 0.20000000000000284
234.645 0.3500000000000014
234.963 0.10000000000000142
235.278 0.2834000000000003
235.596 0.23340000000000316
235.913 0.26670000000000016
236.229 0.15000000000000213
236.546 0.216700000000003
236.864 0.20000000000000284
237.179 0.25
237.497 0.15000000000000213
237.812 0.1667000000000023
238.129 0.2834000000000003
238.447 0.3000000000000007
238.762 0.23340000000000316
239.08 0.26670000000000016
239.395 0.2834000000000003
239.712 0.20000000000000284
240.03 0.3667000000000016
240.345 0.20000000000000284
240.662 0.23340000000000316
240.978 0.25
241.295 0.33340000000000103
241.61 0.23340000000000316
241.927 0.3000000000000007
242.245 0.23340000000000316
242.56 0.3000000000000007
242.877 0.31670000000000087
243.192 0.216700000000003
243.51 0.20000000000000284
243.825 0.25
244.142 0.23340000000000316
244.459 0.15000000000000213
244.774 0.18340000000000245
245.092 0.18340000000000245
245.407 0.18340000000000245
245.724 0.18340000000000245
246.039 0.31670000000000087
246.356 0.23340000000000316
246.671 0.216700000000003
246.988 0.26670000000000016
247.303 0.23340000000000316
247.62 0.15000000000000213
247.938 0.26670000000000016
248.253 0.31670000000000087
248.57 0.18340000000000245
248.885 0.10000000000000142
249.202 0.25
249.517 0.23340000000000316
249.834 0.3500000000000014
250.149 0.13340000000000174
250.466 0.26670000000000016
250.781 0.13340000000000174
251.098 0.23340000000000316
251.412 0.216700000000003
251.729 0.25
252.044 0.20000000000000284
252.361 0.26670000000000016
252.676 0.216700000000003
252.993 0.08340000000000103
253.308 0.23340000000000316
253.625 0.2834000000000003
253.94 0.20000000000000284
254.256 0.26670000000000016
254.571 0.25
254.888 0.25
255.203 0.25
255.518 0.18340000000000245
255.834 0.25
256.149 0.25
256.466 0.15000000000000213
256.781 0.20000000000000284
257.097 0.216700000000003
257.412 0.3000000000000007
257.729 0.26670000000000016
258.044 0.08340000000000103
258.36 0.216700000000003
258.675 0.1667000000000023
258.99 0.25
259.306 0.20000000000000284
259.621 0.18340000000000245
259.938 0.26670000000000016
260.252 0.25
260.569 0.2834000000000003
260.883 0.20000000000000284
261.198 0.2834000000000003
261.515 0.15000000000000213
261.829 0.26670000000000016
262.146 0.23340000000000316
262.46 0.20000000000000284
262.775 0.20000000000000284
263.091 0.20000000000000284
263.406 0.15000000000000213
263.723 0.33340000000000103
264.037 0.33340000000000103
264.354 0.20000000000000284
264.668 0.1667000000000023
264.982 0.216700000000003
265.299 0.23340000000000316
265.613 0.08340000000000103
265.928 0.3000000000000007
266.244 0.23340000000000316
266.559 0.20000000000000284
266.875 0.25
267.189 0.15000000000000213
267.504 0.25
267.82 0.3000000000000007
268.134 0.23340000000000316
268.449 0.08340000000000103
268.765 0.15000000000000213
269.079 0.20000000000000284
269.394 0.23340000000000316
269.71 0.11670000000000158
270.024 0.25
270.341 0.18340000000000245
270.655 0.1667000000000023
270.969 0.216700000000003
271.286 0.25
271.6 0.10000000000000142
271.914 0.10000000000000142
272.23 0.23340000000000316
272.544 0.20000000000000284
272.859 0.1667000000000023
273.175 0.15000000000000213
273.489 0.15000000000000213
273.803 0.31670000000000087
274.119 0.20000000000000284
274.433 0.15000000000000213
274.747 0.216700000000003
275.062 0.25
275.378 0.26670000000000016
275.692 0.25
276.006 0.26670000000000016
276.322 0.20000000000000284
276.636 0.216700000000003
276.95 0.26670000000000016
277.266 0.20000000000000284
277.58 0.1667000000000023
277.894 0.23340000000000316
278.208 0.3000000000000007
278.524 0.23340000000000316
278.838 0.26670000000000016
279.152 0.26670000000000016
279.468 0.18340000000000245
279.782 0.11670000000000158
280.096 0.15000000000000213
280.41 0.11670000000000158
280.726 0.25
281.04 0.1667000000000023
281.354 0.216700000000003
281.668 0.25
281.983 0.23340000000000316
282.297 0.23340000000000316
282.611 0.23340000000000316
282.925 0.216700000000003
283.241 0.20000000000000284
283.555 0.3000000000000007
283.868 0.216700000000003
284.182 0.216700000000003
284.498 0.33340000000000103
284.812 0.13340000000000174
285.126 0.25
285.439 0.3500000000000014
285.753 0.216700000000003
286.069 0.23340000000000316
286.383 0.3500000000000014
286.696 0.13340000000000174
287.01 0.23340000000000316
287.326 0.1667000000000023
287.639 0.25
287.953 0.20000000000000284
288.267 0.25
288.58 0.3000000000000007
288.896 0.20000000000000284
289.21 0.3500000000000014
289.523 0.20000000000000284
289.837 0.25
290.15 0.25
290.466 0.26670000000000016
290.78 0.216700000000003
291.093 0.20000000000000284
291.407 0.31670000000000087
291.72 0.20000000000000284
292.034 0.216700000000003
292.349 0.216700000000003
292.663 0.15000000000000213
292.976 0.20000000000000284
293.29 0.23340000000000316
293.603 0.33340000000000103
293.917 0.18340000000000245
294.232 0.20000000000000284
294.546 0.18340000000000245
294.859 0.26670000000000016
295.172 0.15000000000000213
295.486 0.216700000000003
295.799 0.18340000000000245
296.113 0.18340000000000245
296.428 0.20000000000000284
296.741 0.23340000000000316
297.055 0.23340000000000316
297.368 0.3500000000000014
297.681 0.18340000000000245
297.995 0.18340000000000245
298.308 0.1667000000000023
298.621 0.3000000000000007
298.937 0.20000000000000284
299.25 0.3500000000000014
299.563 0.26670000000000016
299.876 0.26670000000000016
300.19 0.3667000000000016
300.503 0.20000000000000284
300.816 0.2834000000000003
301.129 0.20000000000000284
301.442 0.13340000000000174
301.756 0.20000000000000284
302.071 0.216700000000003
302.384 0.08340000000000103
302.697 0.31670000000000087
303.01 0.10000000000000142
303.323 0.3000000000000007
303.637 0.13340000000000174
303.95 0.20000000000000284
304.263 0.1667000000000023
304.576 0.23340000000000316
304.889 0.2834000000000003
305.202 0.4167000000000023
305.515 0.31670000000000087
305.828 0.2834000000000003
306.141 0.3000000000000007
306.456 0.1667000000000023
306.769 0.216700000000003
307.082 0.3500000000000014
307.395 0.3000000000000007
307.708 0.23340000000000316
308.021 0.3000000000000007
308.334 0.3000000000000007
308.647 0.38340000000000174
308.96 0.13340000000000174
309.273 0.20000000000000284
309.586 0.33340000000000103
309.899 0.11670000000000158
310.212 0.466700000000003
310.525 0.10000000000000142
310.838 0.20000000000000284
311.15 0.3000000000000007
311.463 0.11670000000000158
311.776 0.2834000000000003
312.089 0.20000000000000284
312.402 0.23340000000000316
312.715 0.2834000000000003
313.027 0.1667000000000023
313.34 0.26670000000000016
313.653 0.20000000000000284
313.966 0.20000000000000284
314.278 0.3667000000000016
314.591 0.25
314.904 0.25
315.217 0.26670000000000016
