# Created: 2019-11-28 13:05:38.402647
# rshift intensity
76.1738 0.33330000000000126
76.4989 0.25
76.824 0.2666000000000004
77.1491 0.13330000000000197
77.4721 0.1999999999999993
77.7972 0.18329999999999913
78.1223 0.10000000000000142
78.4474 0.18329999999999913
78.7724 0.10000000000000142
79.0975 0.21659999999999968
79.4204 0.15000000000000213
79.7454 0.0666000000000011
80.0704 0.23329999999999984
80.3954 0.10000000000000142
80.7204 0.18329999999999913
81.0454 0.08330000000000126
81.3682 0.05000000000000071
81.6931 0.08330000000000126
82.0181 0.11660000000000181
82.343 0.03330000000000055
82.6679 0.18329999999999913
82.9907 0.13330000000000197
83.3156 0.13330000000000197
83.6405 0.0
83.9654 0.03330000000000055
84.2903 0.016600000000000392
84.613 0.15000000000000213
84.9378 0.18329999999999913
85.2626 0.16659999999999897
85.5875 0.0666000000000011
85.9101 0.05000000000000071
86.2349 0.10000000000000142
86.5597 0.1999999999999993
86.8845 0.23329999999999984
87.2093 0.03330000000000055
87.5319 0.15000000000000213
87.8566 0.13330000000000197
88.1814 0.16659999999999897
88.5061 0.15000000000000213
88.8286 0.18329999999999913
89.1533 0.25
89.478 0.15000000000000213
89.8027 0.03330000000000055
90.1252 0.15000000000000213
90.4499 0.15000000000000213
90.7745 0.23329999999999984
91.0992 0.1999999999999993
91.4216 0.23329999999999984
91.7462 0.11660000000000181
92.0708 0.13330000000000197
92.3954 0.15000000000000213
92.7179 0.11660000000000181
93.0424 0.05000000000000071
93.367 0.2666000000000004
93.6915 0.25
94.0139 0.16659999999999897
94.3384 0.13330000000000197
94.6629 0.2666000000000004
94.9853 0.10000000000000142
95.3098 0.10000000000000142
95.6342 0.10000000000000142
95.9587 0.15000000000000213
96.281 0.23329999999999984
96.6055 0.16659999999999897
96.9299 0.25
97.2522 0.11660000000000181
97.5766 0.11660000000000181
97.901 0.15000000000000213
98.2232 0.18329999999999913
98.5476 0.21659999999999968
98.8719 0.25
99.1942 0.13330000000000197
99.5185 0.15000000000000213
99.8428 0.08330000000000126
100.165 0.16659999999999897
100.489 0.10000000000000142
100.814 0.18329999999999913
101.136 0.23329999999999984
101.46 0.08330000000000126
101.784 0.21659999999999968
102.106 0.1999999999999993
102.431 0.25
102.755 0.23329999999999984
103.077 0.15000000000000213
103.401 0.15000000000000213
103.725 0.15000000000000213
104.047 0.15000000000000213
104.372 0.3000000000000007
104.696 0.13330000000000197
105.018 0.11660000000000181
105.342 0.16659999999999897
105.666 0.16659999999999897
105.988 0.1999999999999993
106.312 0.13330000000000197
106.634 0.1999999999999993
106.958 0.1999999999999993
107.282 0.08330000000000126
107.604 0.25
107.928 0.2666000000000004
108.252 0.13330000000000197
108.574 0.18329999999999913
108.898 0.21659999999999968
109.22 0.21659999999999968
109.544 0.18329999999999913
109.868 0.15000000000000213
110.19 0.1999999999999993
110.514 0.10000000000000142
110.836 0.1999999999999993
111.159 0.13330000000000197
111.483 0.1999999999999993
111.805 0.13330000000000197
112.129 0.28330000000000055
112.451 0.15000000000000213
112.775 0.15000000000000213
113.096 0.0666000000000011
113.42 0.10000000000000142
113.744 0.18329999999999913
114.066 0.10000000000000142
114.39 0.08330000000000126
114.711 0.11660000000000181
115.035 0.10000000000000142
115.357 0.13330000000000197
115.681 0.2666000000000004
116.004 0.11660000000000181
116.326 0.1999999999999993
116.65 0.11660000000000181
116.971 0.1999999999999993
117.295 0.16659999999999897
117.617 0.25
117.94 0.16659999999999897
118.262 0.0666000000000011
118.586 0.23329999999999984
118.907 0.25
119.231 0.11660000000000181
119.554 0.10000000000000142
119.876 0.21659999999999968
120.199 0.21659999999999968
120.521 0.16659999999999897
120.845 0.1999999999999993
121.166 0.05000000000000071
121.49 0.1999999999999993
121.811 0.11660000000000181
122.135 0.1999999999999993
122.456 0.0666000000000011
122.78 0.18329999999999913
123.101 0.11660000000000181
123.424 0.18329999999999913
123.746 0.15000000000000213
124.069 0.11660000000000181
124.391 0.3000000000000007
124.714 0.25
125.035 0.21659999999999968
125.359 0.23329999999999984
125.68 0.08330000000000126
126.004 0.23329999999999984
126.325 0.1999999999999993
126.648 0.2666000000000004
126.97 0.05000000000000071
127.291 0.16659999999999897
127.614 0.15000000000000213
127.935 0.23329999999999984
128.259 0.11660000000000181
128.58 0.1999999999999993
128.903 0.15000000000000213
129.224 0.16659999999999897
129.548 0.10000000000000142
129.869 0.1999999999999993
130.192 0.08330000000000126
130.513 0.28330000000000055
130.834 0.28330000000000055
131.158 0.11660000000000181
131.479 0.16659999999999897
131.802 0.15000000000000213
132.123 0.15000000000000213
132.446 0.21659999999999968
132.767 0.16659999999999897
133.09 0.21659999999999968
133.411 0.15000000000000213
133.733 0.08330000000000126
134.056 0.11660000000000181
134.377 0.03330000000000055
134.7 0.21659999999999968
135.021 0.23329999999999984
135.342 0.05000000000000071
135.665 0.13330000000000197
135.986 0.16659999999999897
136.309 0.1999999999999993
136.63 0.21659999999999968
136.951 0.16659999999999897
137.274 0.13330000000000197
137.595 0.1999999999999993
137.918 0.16659999999999897
138.238 0.10000000000000142
138.559 0.23329999999999984
138.882 0.05000000000000071
139.203 0.11660000000000181
139.526 0.15000000000000213
139.847 0.10000000000000142
140.168 0.25
140.491 0.13330000000000197
140.811 0.18329999999999913
141.132 0.28330000000000055
141.455 0.23329999999999984
141.776 0.18329999999999913
142.097 0.1999999999999993
142.419 0.23329999999999984
142.74 0.25
143.061 0.13330000000000197
143.384 0.23329999999999984
143.704 0.11660000000000181
144.027 0.10000000000000142
144.348 0.15000000000000213
144.668 0.1999999999999993
144.991 0.2666000000000004
145.312 0.1999999999999993
145.632 0.15000000000000213
145.955 0.21659999999999968
146.276 0.3166000000000011
146.596 0.13330000000000197
146.917 0.18329999999999913
147.24 0.25
147.56 0.13330000000000197
147.881 0.15000000000000213
148.203 0.23329999999999984
148.524 0.3166000000000011
148.844 0.15000000000000213
149.167 0.15000000000000213
149.487 0.16659999999999897
149.808 0.18329999999999913
150.131 0.18329999999999913
150.451 0.3166000000000011
150.771 0.15000000000000213
151.092 0.15000000000000213
151.414 0.10000000000000142
151.735 0.0666000000000011
152.055 0.1999999999999993
152.378 0.13330000000000197
152.698 0.21659999999999968
153.018 0.3166000000000011
153.339 0.0666000000000011
153.661 0.16659999999999897
153.982 0.13330000000000197
154.302 0.15000000000000213
154.622 0.25
154.945 0.1999999999999993
155.265 0.2666000000000004
155.585 0.1999999999999993
155.905 0.03330000000000055
156.228 0.21659999999999968
156.548 0.2666000000000004
156.868 0.15000000000000213
157.188 0.1999999999999993
157.511 0.1999999999999993
157.831 0.16659999999999897
158.151 0.08330000000000126
158.471 0.2666000000000004
158.794 0.2666000000000004
159.114 0.21659999999999968
159.434 0.21659999999999968
159.754 0.15000000000000213
160.074 0.21659999999999968
160.396 0.1999999999999993
160.717 0.13330000000000197
161.037 0.3500000000000014
161.357 0.2666000000000004
161.679 0.3666000000000018
161.999 0.23329999999999984
162.319 0.25
162.639 0.18329999999999913
162.959 0.2666000000000004
163.281 0.383300000000002
163.601 0.21659999999999968
163.921 0.33330000000000126
164.241 0.2666000000000004
164.561 0.23329999999999984
164.881 0.3666000000000018
165.203 0.28330000000000055
165.523 0.3666000000000018
165.843 0.18329999999999913
166.163 0.3500000000000014
166.483 0.2666000000000004
166.803 0.08330000000000126
167.125 0.383300000000002
167.445 0.13330000000000197
167.764 0.2666000000000004
168.084 0.23329999999999984
168.404 0.23329999999999984
168.724 0.3000000000000007
169.046 0.2666000000000004
169.366 0.16659999999999897
169.685 0.3666000000000018
170.005 0.21659999999999968
170.325 0.25
170.645 0.2666000000000004
170.964 0.25
171.286 0.15000000000000213
171.606 0.1999999999999993
171.926 0.16659999999999897
172.245 0.03330000000000055
172.565 0.3000000000000007
172.885 0.25
173.204 0.08330000000000126
173.524 0.2666000000000004
173.846 0.11660000000000181
174.166 0.18329999999999913
174.485 0.18329999999999913
174.805 0.21659999999999968
175.124 0.08330000000000126
175.444 0.16659999999999897
175.764 0.3000000000000007
176.083 0.28330000000000055
176.403 0.33330000000000126
176.722 0.33330000000000126
177.044 0.08330000000000126
177.363 0.18329999999999913
177.683 0.16659999999999897
178.002 0.18329999999999913
178.322 0.23329999999999984
178.641 0.16659999999999897
178.961 0.10000000000000142
179.28 0.2666000000000004
179.6 0.21659999999999968
179.919 0.2666000000000004
180.239 0.18329999999999913
180.558 0.1999999999999993
180.877 0.28330000000000055
181.197 0.3000000000000007
181.516 0.1999999999999993
181.838 0.25
182.157 0.25
182.476 0.16659999999999897
182.796 0.2666000000000004
183.115 0.25
183.434 0.15000000000000213
183.754 0.18329999999999913
184.073 0.16659999999999897
184.392 0.1999999999999993
184.712 0.3000000000000007
185.031 0.23329999999999984
185.35 0.3000000000000007
185.669 0.21659999999999968
185.989 0.2666000000000004
186.308 0.21659999999999968
186.627 0.3000000000000007
186.946 0.25
187.265 0.18329999999999913
187.585 0.18329999999999913
187.904 0.18329999999999913
188.223 0.16659999999999897
188.542 0.3166000000000011
188.861 0.11660000000000181
189.18 0.13330000000000197
189.499 0.1999999999999993
189.818 0.25
190.138 0.16659999999999897
190.457 0.21659999999999968
190.776 0.18329999999999913
191.095 0.2666000000000004
191.414 0.15000000000000213
191.733 0.18329999999999913
192.052 0.3666000000000018
192.371 0.15000000000000213
192.69 0.13330000000000197
193.009 0.16659999999999897
193.328 0.3166000000000011
193.647 0.21659999999999968
193.966 0.1999999999999993
194.285 0.11660000000000181
194.602 0.18329999999999913
194.92 0.28330000000000055
195.239 0.13330000000000197
195.558 0.2666000000000004
195.877 0.15000000000000213
196.196 0.23329999999999984
196.515 0.15000000000000213
196.834 0.3500000000000014
197.153 0.23329999999999984
197.471 0.18329999999999913
197.79 0.15000000000000213
198.109 0.25
198.428 0.1999999999999993
198.747 0.1999999999999993
199.065 0.23329999999999984
199.382 0.3000000000000007
199.701 0.18329999999999913
200.02 0.16659999999999897
200.338 0.11660000000000181
200.657 0.13330000000000197
200.976 0.28330000000000055
201.295 0.13330000000000197
201.613 0.21659999999999968
201.932 0.1999999999999993
202.251 0.21659999999999968
202.567 0.08330000000000126
202.886 0.383300000000002
203.204 0.3666000000000018
203.523 0.1999999999999993
203.842 0.16659999999999897
204.16 0.1999999999999993
204.479 0.11660000000000181
204.797 0.10000000000000142
205.114 0.1999999999999993
205.433 0.25
205.751 0.3166000000000011
206.07 0.2666000000000004
206.388 0.16659999999999897
206.707 0.3000000000000007
207.025 0.25
207.342 0.2666000000000004
207.66 0.18329999999999913
207.979 0.16659999999999897
208.297 0.3500000000000014
208.615 0.23329999999999984
208.934 0.3000000000000007
209.25 0.25
209.569 0.25
209.887 0.3166000000000011
210.205 0.15000000000000213
210.524 0.25
210.842 0.2666000000000004
211.158 0.383300000000002
211.477 0.25
211.795 0.18329999999999913
212.113 0.3500000000000014
212.432 0.23329999999999984
212.75 0.15000000000000213
213.066 0.11660000000000181
213.385 0.1999999999999993
213.703 0.3166000000000011
214.021 0.23329999999999984
214.339 0.1999999999999993
214.656 0.25
214.974 0.18329999999999913
215.292 0.2666000000000004
215.61 0.13330000000000197
215.926 0.25
216.245 0.3000000000000007
216.563 0.15000000000000213
216.881 0.25
217.199 0.21659999999999968
217.515 0.33330000000000126
217.833 0.1999999999999993
218.151 0.3666000000000018
218.469 0.15000000000000213
218.785 0.25
219.104 0.23329999999999984
219.422 0.16659999999999897
219.74 0.1999999999999993
220.056 0.1999999999999993
220.374 0.2666000000000004
220.692 0.3166000000000011
221.01 0.23329999999999984
221.326 0.23329999999999984
221.644 0.3500000000000014
221.962 0.25
222.28 0.3166000000000011
222.596 0.383300000000002
222.914 0.3000000000000007
223.232 0.33330000000000126
223.547 0.3166000000000011
223.865 0.3166000000000011
224.183 0.33330000000000126
224.501 0.2666000000000004
224.817 0.3000000000000007
225.135 0.3000000000000007
225.453 0.2666000000000004
225.768 0.3166000000000011
226.086 0.2666000000000004
226.404 0.40000000000000213
226.722 0.13330000000000197
227.038 0.33330000000000126
227.355 0.2666000000000004
227.673 0.28330000000000055
227.989 0.25
228.307 0.3166000000000011
228.625 0.28330000000000055
228.94 0.2666000000000004
229.258 0.28330000000000055
229.576 0.28330000000000055
229.891 0.21659999999999968
230.209 0.25
230.527 0.23329999999999984
230.842 0.25
231.16 0.25
231.478 0.25
231.793 0.1999999999999993
232.111 0.25
232.428 0.23329999999999984
232.744 0.3166000000000011
233.062 0.28330000000000055
233.379 0.28330000000000055
233.695 0.2666000000000004
234.012 0.3166000000000011
234.33 0.383300000000002
234.645 0.33330000000000126
234.963 0.23329999999999984
235.278 0.33330000000000126
235.596 0.3166000000000011
235.913 0.3666000000000018
236.229 0.28330000000000055
236.546 0.28330000000000055
236.864 0.33330000000000126
237.179 0.28330000000000055
237.497 0.40000000000000213
237.812 0.3166000000000011
238.129 0.2666000000000004
238.447 0.15000000000000213
238.762 0.16659999999999897
239.08 0.28330000000000055
239.395 0.3000000000000007
239.712 0.21659999999999968
240.03 0.41659999999999897
240.345 0.3666000000000018
240.662 0.40000000000000213
240.978 0.4499999999999993
241.295 0.3666000000000018
241.61 0.1999999999999993
241.927 0.23329999999999984
242.245 0.4665999999999997
242.56 0.33330000000000126
242.877 0.23329999999999984
243.192 0.3500000000000014
243.51 0.25
243.825 0.3000000000000007
244.142 0.25
244.459 0.33330000000000126
244.774 0.15000000000000213
245.092 0.4665999999999997
245.407 0.33330000000000126
245.724 0.33330000000000126
246.039 0.3666000000000018
246.356 0.16659999999999897
246.671 0.3000000000000007
246.988 0.33330000000000126
247.303 0.21659999999999968
247.62 0.3166000000000011
247.938 0.3166000000000011
248.253 0.2666000000000004
248.57 0.43329999999999913
248.885 0.21659999999999968
249.202 0.23329999999999984
249.517 0.13330000000000197
249.834 0.18329999999999913
250.149 0.16659999999999897
250.466 0.3666000000000018
250.781 0.41659999999999897
251.098 0.33330000000000126
251.412 0.40000000000000213
251.729 0.33330000000000126
252.044 0.21659999999999968
252.361 0.3500000000000014
252.676 0.3166000000000011
252.993 0.28330000000000055
253.308 0.28330000000000055
253.625 0.18329999999999913
253.94 0.3666000000000018
254.256 0.1999999999999993
254.571 0.21659999999999968
254.888 0.25
255.203 0.21659999999999968
255.518 0.2666000000000004
255.834 0.2666000000000004
256.149 0.43329999999999913
256.466 0.23329999999999984
256.781 0.15000000000000213
257.097 0.3000000000000007
257.412 0.18329999999999913
257.729 0.13330000000000197
258.044 0.3000000000000007
258.36 0.33330000000000126
258.675 0.25
258.99 0.28330000000000055
259.306 0.23329999999999984
259.621 0.25
259.938 0.21659999999999968
260.252 0.28330000000000055
260.569 0.3166000000000011
260.883 0.2666000000000004
261.198 0.18329999999999913
261.515 0.25
261.829 0.16659999999999897
262.146 0.25
262.46 0.383300000000002
262.775 0.21659999999999968
263.091 0.21659999999999968
263.406 0.3500000000000014
263.723 0.16659999999999897
264.037 0.3666000000000018
264.354 0.3000000000000007
264.668 0.21659999999999968
264.982 0.21659999999999968
265.299 0.16659999999999897
265.613 0.1999999999999993
265.928 0.40000000000000213
266.244 0.33330000000000126
266.559 0.2666000000000004
266.875 0.3500000000000014
267.189 0.1999999999999993
267.504 0.23329999999999984
267.82 0.1999999999999993
268.134 0.3000000000000007
268.449 0.3500000000000014
268.765 0.25
269.079 0.21659999999999968
269.394 0.28330000000000055
269.71 0.21659999999999968
270.024 0.25
270.341 0.33330000000000126
270.655 0.383300000000002
270.969 0.15000000000000213
271.286 0.2666000000000004
271.6 0.3666000000000018
271.914 0.3166000000000011
272.23 0.1999999999999993
272.544 0.2666000000000004
272.859 0.0666000000000011
273.175 0.4499999999999993
273.489 0.25
273.803 0.1999999999999993
274.119 0.40000000000000213
274.433 0.3000000000000007
274.747 0.3166000000000011
275.062 0.23329999999999984
275.378 0.3666000000000018
275.692 0.18329999999999913
276.006 0.1999999999999993
276.322 0.3166000000000011
276.636 0.15000000000000213
276.95 0.16659999999999897
277.266 0.18329999999999913
277.58 0.13330000000000197
277.894 0.13330000000000197
278.208 0.3000000000000007
278.524 0.3666000000000018
278.838 0.28330000000000055
279.152 0.33330000000000126
279.468 0.33330000000000126
279.782 0.23329999999999984
280.096 0.25
280.41 0.2666000000000004
280.726 0.25
281.04 0.3000000000000007
281.354 0.40000000000000213
281.668 0.3500000000000014
281.983 0.383300000000002
282.297 0.25
282.611 0.21659999999999968
282.925 0.23329999999999984
283.241 0.2666000000000004
283.555 0.3000000000000007
283.868 0.21659999999999968
284.182 0.3500000000000014
284.498 0.3000000000000007
284.812 0.5333000000000006
285.126 0.25
285.439 0.2666000000000004
285.753 0.3166000000000011
286.069 0.3000000000000007
286.383 0.33330000000000126
286.696 0.23329999999999984
287.01 0.383300000000002
287.326 0.13330000000000197
287.639 0.3666000000000018
287.953 0.2666000000000004
288.267 0.28330000000000055
288.58 0.383300000000002
288.896 0.40000000000000213
289.21 0.33330000000000126
289.523 0.28330000000000055
289.837 0.383300000000002
290.15 0.15000000000000213
290.466 0.383300000000002
290.78 0.21659999999999968
291.093 0.25
291.407 0.28330000000000055
291.72 0.1999999999999993
292.034 0.33330000000000126
292.349 0.21659999999999968
292.663 0.28330000000000055
292.976 0.21659999999999968
293.29 0.2666000000000004
293.603 0.3666000000000018
293.917 0.1999999999999993
294.232 0.40000000000000213
294.546 0.3000000000000007
294.859 0.2666000000000004
295.172 0.33330000000000126
295.486 0.16659999999999897
295.799 0.23329999999999984
296.113 0.15000000000000213
296.428 0.3666000000000018
296.741 0.2666000000000004
297.055 0.3500000000000014
297.368 0.2666000000000004
297.681 0.3500000000000014
297.995 0.28330000000000055
298.308 0.33330000000000126
298.621 0.23329999999999984
298.937 0.25
299.25 0.3500000000000014
299.563 0.2666000000000004
299.876 0.16659999999999897
300.19 0.23329999999999984
300.503 0.3166000000000011
300.816 0.2666000000000004
301.129 0.21659999999999968
301.442 0.3666000000000018
301.756 0.23329999999999984
302.071 0.2666000000000004
302.384 0.3166000000000011
302.697 0.28330000000000055
303.01 0.23329999999999984
303.323 0.18329999999999913
303.637 0.21659999999999968
303.95 0.25
304.263 0.3000000000000007
304.576 0.3666000000000018
304.889 0.3000000000000007
305.202 0.3666000000000018
305.515 0.18329999999999913
305.828 0.3000000000000007
306.141 0.3000000000000007
306.456 0.23329999999999984
306.769 0.25
307.082 0.23329999999999984
307.395 0.2666000000000004
307.708 0.3000000000000007
308.021 0.40000000000000213
308.334 0.3000000000000007
308.647 0.383300000000002
308.96 0.3000000000000007
309.273 0.25
309.586 0.33330000000000126
309.899 0.33330000000000126
310.212 0.13330000000000197
310.525 0.18329999999999913
310.838 0.3000000000000007
311.15 0.2666000000000004
311.463 0.25
311.776 0.1999999999999993
312.089 0.3500000000000014
312.402 0.33330000000000126
312.715 0.40000000000000213
313.027 0.40000000000000213
313.34 0.1999999999999993
313.653 0.18329999999999913
313.966 0.5666000000000011
314.278 0.3166000000000011
314.591 0.33330000000000126
314.904 0.25
315.217 0.2666000000000004
315.529 0.2666000000000004
315.842 0.33330000000000126
316.155 0.2666000000000004
316.467 0.3166000000000011
316.78 0.3500000000000014
317.093 0.3500000000000014
317.405 0.3000000000000007
