# Created: 2019-11-28 14:34:52.692450
# rshift intensity
76.1738 0.043340000000000156
76.4989 0.10667000000000026
76.824 0.07667000000000002
77.1491 0.08667000000000025
77.4721 0.04667000000000021
77.7972 0.06667000000000023
78.1223 0.07333999999999996
78.4474 0.09667000000000003
78.7724 0.013340000000000352
79.0975 0.03334000000000037
79.4204 0.07667000000000002
79.7454 0.08000000000000007
80.0704 0.10667000000000026
80.3954 0.1200000000000001
80.7204 0.04667000000000021
81.0454 0.05667
81.3682 0.06000000000000005
81.6931 0.03000000000000025
82.0181 0.0900000000000003
82.343 0.07333999999999996
82.6679 0.03666999999999998
82.9907 0.08000000000000007
83.3156 0.10667000000000026
83.6405 0.09333999999999998
83.9654 0.050000000000000266
84.2903 0.050000000000000266
84.613 0.11334
84.9378 0.09333999999999998
85.2626 0.08000000000000007
85.5875 0.08334000000000019
85.9101 0.11000000000000032
86.2349 0.013340000000000352
86.5597 0.08334000000000019
86.8845 0.06000000000000005
87.2093 0.06667000000000023
87.5319 0.05334000000000039
87.8566 0.08334000000000019
88.1814 0.11000000000000032
88.5061 0.1200000000000001
88.8286 0.05667
89.1533 0.10334000000000021
89.478 0.0900000000000003
89.8027 0.08334000000000019
90.1252 0.10667000000000026
90.4499 0.10667000000000026
90.7745 0.12667000000000028
91.0992 0.09667000000000003
91.4216 0.08000000000000007
91.7462 0.1200000000000001
92.0708 0.13000000000000034
92.3954 0.09333999999999998
92.7179 0.12667000000000028
93.0424 0.11000000000000032
93.367 0.09333999999999998
93.6915 0.10667000000000026
94.0139 0.10667000000000026
94.3384 0.09333999999999998
94.6629 0.07667000000000002
94.9853 0.08667000000000025
95.3098 0.06000000000000005
95.6342 0.07667000000000002
95.9587 0.08000000000000007
96.281 0.09667000000000003
96.6055 0.0
96.9299 0.07667000000000002
97.2522 0.1200000000000001
97.5766 0.08667000000000025
97.901 0.10334000000000021
98.2232 0.06667000000000023
98.5476 0.09333999999999998
98.8719 0.08667000000000025
99.1942 0.11334
99.5185 0.13334000000000001
99.8428 0.13000000000000034
100.165 0.13000000000000034
100.489 0.12667000000000028
100.814 0.03334000000000037
101.136 0.15000000000000036
101.46 0.06667000000000023
101.784 0.11667000000000005
102.106 0.11000000000000032
102.431 0.12334000000000023
102.755 0.08667000000000025
103.077 0.13000000000000034
103.401 0.10667000000000026
103.725 0.11334
104.047 0.11667000000000005
104.372 0.11000000000000032
104.696 0.15334000000000003
105.018 0.11667000000000005
105.342 0.16667000000000032
105.666 0.13000000000000034
105.988 0.13000000000000034
106.312 0.1566700000000001
106.634 0.16000000000000014
106.958 0.11000000000000032
107.282 0.14334000000000024
107.604 0.08334000000000019
107.928 0.13334000000000001
108.252 0.10000000000000009
108.574 0.0900000000000003
108.898 0.07000000000000028
109.22 0.11000000000000032
109.544 0.09333999999999998
109.868 0.0900000000000003
110.19 0.06334000000000017
110.514 0.07667000000000002
110.836 0.0900000000000003
111.159 0.11667000000000005
111.483 0.14000000000000012
111.805 0.13000000000000034
112.129 0.11667000000000005
112.451 0.09333999999999998
112.775 0.09333999999999998
113.096 0.07333999999999996
113.42 0.08000000000000007
113.744 0.10000000000000009
114.066 0.08667000000000025
114.39 0.11000000000000032
114.711 0.07667000000000002
115.035 0.08000000000000007
115.357 0.07667000000000002
115.681 0.11000000000000032
116.004 0.10000000000000009
116.326 0.11000000000000032
116.65 0.08667000000000025
116.971 0.10000000000000009
117.295 0.10000000000000009
117.617 0.11000000000000032
117.94 0.14334000000000024
118.262 0.10000000000000009
118.586 0.11667000000000005
118.907 0.15334000000000003
119.231 0.0900000000000003
119.554 0.09333999999999998
119.876 0.16667000000000032
120.199 0.10000000000000009
120.521 0.09667000000000003
120.845 0.11334
121.166 0.12667000000000028
121.49 0.11000000000000032
121.811 0.10667000000000026
122.135 0.13334000000000001
122.456 0.11667000000000005
122.78 0.10000000000000009
123.101 0.14334000000000024
123.424 0.10667000000000026
123.746 0.1200000000000001
124.069 0.13667000000000007
124.391 0.10334000000000021
124.714 0.1200000000000001
125.035 0.09333999999999998
125.359 0.12667000000000028
125.68 0.12334000000000023
126.004 0.10334000000000021
126.325 0.12334000000000023
126.648 0.16334000000000026
126.97 0.08000000000000007
127.291 0.11334
127.614 0.13667000000000007
127.935 0.10667000000000026
128.259 0.16000000000000014
128.58 0.12667000000000028
128.903 0.18667000000000034
129.224 0.13334000000000001
129.548 0.1466700000000003
129.869 0.11334
130.192 0.12667000000000028
130.513 0.12667000000000028
130.834 0.18334000000000028
131.158 0.08000000000000007
131.479 0.11667000000000005
131.802 0.14334000000000024
132.123 0.09667000000000003
132.446 0.13334000000000001
132.767 0.11000000000000032
133.09 0.08667000000000025
133.411 0.10667000000000026
133.733 0.14000000000000012
134.056 0.10334000000000021
134.377 0.12667000000000028
134.7 0.1466700000000003
135.021 0.13000000000000034
135.342 0.14334000000000024
135.665 0.050000000000000266
135.986 0.15334000000000003
136.309 0.1466700000000003
136.63 0.1200000000000001
136.951 0.11000000000000032
137.274 0.16000000000000014
137.595 0.12667000000000028
137.918 0.12334000000000023
138.238 0.08334000000000019
138.559 0.1200000000000001
138.882 0.1466700000000003
139.203 0.12334000000000023
139.526 0.1200000000000001
139.847 0.13000000000000034
140.168 0.14334000000000024
140.491 0.1200000000000001
140.811 0.1566700000000001
141.132 0.20000000000000018
141.455 0.08667000000000025
141.776 0.15334000000000003
142.097 0.18334000000000028
142.419 0.18000000000000016
142.74 0.20667000000000035
143.061 0.10334000000000021
143.384 0.16334000000000026
143.704 0.17000000000000037
144.027 0.11000000000000032
144.348 0.19334000000000007
144.668 0.14334000000000024
144.991 0.15000000000000036
145.312 0.14000000000000012
145.632 0.11667000000000005
145.955 0.12667000000000028
146.276 0.14334000000000024
146.596 0.11334
146.917 0.14334000000000024
147.24 0.11000000000000032
147.56 0.09667000000000003
147.881 0.1200000000000001
148.203 0.1200000000000001
148.524 0.10667000000000026
148.844 0.11334
149.167 0.12334000000000023
149.487 0.17000000000000037
149.808 0.19334000000000007
150.131 0.1766700000000001
150.451 0.11334
150.771 0.11000000000000032
151.092 0.16000000000000014
151.414 0.1466700000000003
151.735 0.17334000000000005
152.055 0.14334000000000024
152.378 0.07000000000000028
152.698 0.11667000000000005
153.018 0.16000000000000014
153.339 0.17334000000000005
153.661 0.16000000000000014
153.982 0.14334000000000024
154.302 0.1566700000000001
154.622 0.13667000000000007
154.945 0.16334000000000026
155.265 0.16667000000000032
155.585 0.18667000000000034
155.905 0.17000000000000037
156.228 0.18000000000000016
156.548 0.08000000000000007
156.868 0.12334000000000023
157.188 0.20000000000000018
157.511 0.11334
157.831 0.16000000000000014
158.151 0.15334000000000003
158.471 0.17334000000000005
158.794 0.1900000000000004
159.114 0.14334000000000024
159.434 0.18000000000000016
159.754 0.14000000000000012
160.074 0.13334000000000001
160.396 0.1466700000000003
160.717 0.15000000000000036
161.037 0.08667000000000025
161.357 0.1466700000000003
161.679 0.16334000000000026
161.999 0.1766700000000001
162.319 0.17000000000000037
162.639 0.16667000000000032
162.959 0.13000000000000034
163.281 0.17000000000000037
163.601 0.1766700000000001
163.921 0.16000000000000014
164.241 0.13667000000000007
164.561 0.17000000000000037
164.881 0.18000000000000016
165.203 0.21667000000000014
165.523 0.12667000000000028
165.843 0.15334000000000003
166.163 0.16000000000000014
166.483 0.2033400000000003
166.803 0.1900000000000004
167.125 0.23667000000000016
167.445 0.18334000000000028
167.764 0.2033400000000003
168.084 0.1566700000000001
168.404 0.1566700000000001
168.724 0.16667000000000032
169.046 0.16000000000000014
169.366 0.15334000000000003
169.685 0.2200000000000002
170.005 0.14334000000000024
170.325 0.14334000000000024
170.645 0.18667000000000034
170.964 0.13667000000000007
171.286 0.09667000000000003
171.606 0.10334000000000021
171.926 0.12667000000000028
172.245 0.12667000000000028
172.565 0.13334000000000001
172.885 0.1766700000000001
173.204 0.16667000000000032
173.524 0.17000000000000037
173.846 0.1766700000000001
174.166 0.1466700000000003
174.485 0.17334000000000005
174.805 0.17000000000000037
175.124 0.2400000000000002
175.444 0.12334000000000023
175.764 0.18000000000000016
176.083 0.16000000000000014
176.403 0.18667000000000034
176.722 0.13000000000000034
177.044 0.1566700000000001
177.363 0.19667000000000012
177.683 0.20000000000000018
178.002 0.16000000000000014
178.322 0.18334000000000028
178.641 0.14334000000000024
178.961 0.18334000000000028
179.28 0.12667000000000028
179.6 0.16334000000000026
179.919 0.18667000000000034
180.239 0.11667000000000005
180.558 0.13000000000000034
180.877 0.18667000000000034
181.197 0.17334000000000005
181.516 0.18334000000000028
181.838 0.1766700000000001
182.157 0.18334000000000028
182.476 0.16000000000000014
182.796 0.18334000000000028
183.115 0.12667000000000028
183.434 0.17000000000000037
183.754 0.15334000000000003
184.073 0.19667000000000012
184.392 0.16667000000000032
184.712 0.18667000000000034
185.031 0.2033400000000003
185.35 0.1466700000000003
185.669 0.21667000000000014
185.989 0.16667000000000032
186.308 0.18334000000000028
186.627 0.13000000000000034
186.946 0.14334000000000024
187.265 0.18000000000000016
187.585 0.20667000000000035
187.904 0.16667000000000032
188.223 0.1900000000000004
188.542 0.16667000000000032
188.861 0.19667000000000012
189.18 0.14334000000000024
189.499 0.16000000000000014
189.818 0.18000000000000016
190.138 0.15334000000000003
190.457 0.1566700000000001
190.776 0.18334000000000028
191.095 0.18334000000000028
191.414 0.21334000000000009
191.733 0.21334000000000009
192.052 0.21334000000000009
192.371 0.23667000000000016
192.69 0.16000000000000014
193.009 0.23667000000000016
193.328 0.22334000000000032
193.647 0.22667000000000037
193.966 0.20999999999999996
194.285 0.15334000000000003
194.602 0.18000000000000016
194.92 0.19334000000000007
195.239 0.22667000000000037
195.558 0.15000000000000036
195.877 0.16000000000000014
196.196 0.20999999999999996
196.515 0.20667000000000035
196.834 0.15334000000000003
197.153 0.1766700000000001
197.471 0.1900000000000004
197.79 0.17000000000000037
198.109 0.18000000000000016
198.428 0.21667000000000014
198.747 0.18667000000000034
199.065 0.20667000000000035
199.382 0.1766700000000001
199.701 0.18667000000000034
200.02 0.14000000000000012
200.338 0.17000000000000037
200.657 0.18334000000000028
200.976 0.1766700000000001
201.295 0.15334000000000003
201.613 0.2033400000000003
201.932 0.21667000000000014
202.251 0.1566700000000001
202.567 0.15000000000000036
202.886 0.20667000000000035
203.204 0.21667000000000014
203.523 0.14000000000000012
203.842 0.1566700000000001
204.16 0.18667000000000034
204.479 0.19334000000000007
204.797 0.16334000000000026
205.114 0.20000000000000018
205.433 0.16667000000000032
205.751 0.18000000000000016
206.07 0.18334000000000028
206.388 0.19667000000000012
206.707 0.19334000000000007
207.025 0.20000000000000018
207.342 0.1900000000000004
207.66 0.14000000000000012
207.979 0.22334000000000032
208.297 0.16334000000000026
208.615 0.22999999999999998
208.934 0.22667000000000037
209.25 0.1766700000000001
209.569 0.18000000000000016
209.887 0.23667000000000016
210.205 0.20000000000000018
210.524 0.1766700000000001
210.842 0.2533400000000001
211.158 0.21667000000000014
211.477 0.20667000000000035
211.795 0.12667000000000028
212.113 0.18334000000000028
212.432 0.1466700000000003
212.75 0.20999999999999996
213.066 0.12334000000000023
213.385 0.1900000000000004
213.703 0.20999999999999996
214.021 0.18000000000000016
214.339 0.16000000000000014
214.656 0.2200000000000002
214.974 0.1566700000000001
215.292 0.17334000000000005
215.61 0.18000000000000016
215.926 0.1900000000000004
216.245 0.18667000000000034
216.563 0.1566700000000001
216.881 0.24334000000000033
217.199 0.2633399999999999
217.515 0.20667000000000035
217.833 0.27
218.151 0.2333400000000001
218.469 0.19667000000000012
218.785 0.20999999999999996
219.104 0.2400000000000002
219.422 0.18667000000000034
219.74 0.23667000000000016
220.056 0.19334000000000007
220.374 0.2200000000000002
220.692 0.2466700000000004
221.01 0.22667000000000037
221.326 0.1766700000000001
221.644 0.2200000000000002
221.962 0.19667000000000012
222.28 0.23667000000000016
222.596 0.1900000000000004
222.914 0.22667000000000037
223.232 0.22334000000000032
223.547 0.24334000000000033
223.865 0.21334000000000009
224.183 0.22334000000000032
224.501 0.1900000000000004
224.817 0.16334000000000026
225.135 0.2533400000000001
225.453 0.2200000000000002
225.768 0.22334000000000032
226.086 0.22667000000000037
226.404 0.21334000000000009
226.722 0.2333400000000001
227.038 0.2033400000000003
227.355 0.21667000000000014
227.673 0.2200000000000002
227.989 0.20667000000000035
228.307 0.18667000000000034
228.625 0.22667000000000037
228.94 0.1566700000000001
229.258 0.15334000000000003
229.576 0.2033400000000003
229.891 0.22667000000000037
230.209 0.2200000000000002
230.527 0.2400000000000002
230.842 0.2466700000000004
231.16 0.21334000000000009
231.478 0.22334000000000032
231.793 0.20999999999999996
232.111 0.1900000000000004
232.428 0.20999999999999996
232.744 0.21667000000000014
233.062 0.2400000000000002
233.379 0.2400000000000002
233.695 0.19667000000000012
234.012 0.2466700000000004
234.33 0.2533400000000001
234.645 0.2200000000000002
234.963 0.2033400000000003
235.278 0.2400000000000002
235.596 0.22334000000000032
235.913 0.22667000000000037
236.229 0.22667000000000037
236.546 0.21334000000000009
236.864 0.2033400000000003
237.179 0.22334000000000032
237.497 0.2466700000000004
237.812 0.2400000000000002
238.129 0.22667000000000037
238.447 0.22334000000000032
238.762 0.20667000000000035
239.08 0.20999999999999996
239.395 0.25
239.712 0.20667000000000035
240.03 0.2200000000000002
240.345 0.20667000000000035
240.662 0.23667000000000016
240.978 0.2400000000000002
241.295 0.2566700000000002
241.61 0.2466700000000004
241.927 0.2400000000000002
242.245 0.2866700000000004
242.56 0.29334000000000016
242.877 0.22667000000000037
243.192 0.2733400000000006
243.51 0.27
243.825 0.25
244.142 0.21334000000000009
244.459 0.2533400000000001
244.774 0.2533400000000001
245.092 0.2533400000000001
245.407 0.2466700000000004
245.724 0.2400000000000002
246.039 0.17000000000000037
246.356 0.20999999999999996
246.671 0.20667000000000035
246.988 0.22667000000000037
247.303 0.2200000000000002
247.62 0.20999999999999996
247.938 0.2466700000000004
248.253 0.21334000000000009
248.57 0.16667000000000032
248.885 0.20667000000000035
249.202 0.21667000000000014
249.517 0.25
249.834 0.19334000000000007
250.149 0.20999999999999996
250.466 0.23667000000000016
250.781 0.18334000000000028
251.098 0.21334000000000009
251.412 0.2400000000000002
251.729 0.19667000000000012
252.044 0.2200000000000002
252.361 0.20667000000000035
252.676 0.23667000000000016
252.993 0.18667000000000034
253.308 0.22667000000000037
253.625 0.20000000000000018
253.94 0.21667000000000014
254.256 0.18334000000000028
254.571 0.22667000000000037
254.888 0.18667000000000034
255.203 0.2466700000000004
255.518 0.22667000000000037
255.834 0.18667000000000034
256.149 0.2033400000000003
256.466 0.21667000000000014
256.781 0.20999999999999996
257.097 0.24334000000000033
257.412 0.24334000000000033
257.729 0.18667000000000034
258.044 0.23667000000000016
258.36 0.2200000000000002
258.675 0.2566700000000002
258.99 0.21334000000000009
259.306 0.20667000000000035
259.621 0.20999999999999996
259.938 0.26000000000000023
260.252 0.20000000000000018
260.569 0.2400000000000002
260.883 0.22999999999999998
261.198 0.19667000000000012
261.515 0.2200000000000002
261.829 0.22334000000000032
262.146 0.22667000000000037
262.46 0.18000000000000016
262.775 0.2400000000000002
263.091 0.20999999999999996
263.406 0.22999999999999998
263.723 0.21334000000000009
264.037 0.2333400000000001
264.354 0.2400000000000002
264.668 0.19667000000000012
264.982 0.22999999999999998
265.299 0.20000000000000018
265.613 0.21334000000000009
265.928 0.20999999999999996
266.244 0.2333400000000001
266.559 0.16334000000000026
266.875 0.20000000000000018
267.189 0.2733400000000006
267.504 0.16667000000000032
267.82 0.22999999999999998
268.134 0.20000000000000018
268.449 0.2200000000000002
268.765 0.17334000000000005
269.079 0.2200000000000002
269.394 0.23667000000000016
269.71 0.2333400000000001
270.024 0.22334000000000032
270.341 0.2033400000000003
270.655 0.22999999999999998
270.969 0.24334000000000033
271.286 0.2466700000000004
271.6 0.2533400000000001
271.914 0.22334000000000032
272.23 0.22334000000000032
272.544 0.18334000000000028
272.859 0.23667000000000016
273.175 0.1900000000000004
273.489 0.18334000000000028
273.803 0.21667000000000014
274.119 0.21334000000000009
274.433 0.20999999999999996
274.747 0.21667000000000014
275.062 0.21667000000000014
275.378 0.2466700000000004
275.692 0.17334000000000005
276.006 0.16667000000000032
276.322 0.1766700000000001
276.636 0.2033400000000003
276.95 0.21334000000000009
277.266 0.20667000000000035
277.58 0.2200000000000002
277.894 0.2733400000000006
278.208 0.21334000000000009
278.524 0.22999999999999998
278.838 0.2566700000000002
279.152 0.22667000000000037
279.468 0.2566700000000002
279.782 0.26666999999999996
280.096 0.1900000000000004
280.41 0.20999999999999996
280.726 0.24334000000000033
281.04 0.21334000000000009
281.354 0.24334000000000033
281.668 0.2200000000000002
281.983 0.2333400000000001
282.297 0.2400000000000002
282.611 0.24334000000000033
282.925 0.25
283.241 0.2200000000000002
283.555 0.22999999999999998
283.868 0.2466700000000004
284.182 0.20999999999999996
284.498 0.2200000000000002
284.812 0.2333400000000001
285.126 0.2400000000000002
285.439 0.20000000000000018
285.753 0.22334000000000032
286.069 0.22667000000000037
286.383 0.20667000000000035
286.696 0.24334000000000033
287.01 0.26000000000000023
287.326 0.24334000000000033
287.639 0.20000000000000018
287.953 0.2533400000000001
288.267 0.22334000000000032
288.58 0.2466700000000004
288.896 0.2566700000000002
289.21 0.2200000000000002
289.523 0.2400000000000002
289.837 0.2333400000000001
290.15 0.27
290.466 0.2533400000000001
290.78 0.21667000000000014
291.093 0.2466700000000004
291.407 0.26666999999999996
291.72 0.2400000000000002
292.034 0.20999999999999996
292.349 0.26000000000000023
292.663 0.2400000000000002
292.976 0.2400000000000002
293.29 0.2533400000000001
293.603 0.22334000000000032
293.917 0.22667000000000037
294.232 0.2533400000000001
294.546 0.1766700000000001
294.859 0.26000000000000023
295.172 0.20999999999999996
295.486 0.2466700000000004
295.799 0.24334000000000033
296.113 0.27666999999999975
296.428 0.28334000000000037
296.741 0.1900000000000004
297.055 0.2566700000000002
297.368 0.2533400000000001
297.681 0.17334000000000005
297.995 0.23667000000000016
298.308 0.22667000000000037
298.621 0.25
298.937 0.19667000000000012
299.25 0.2333400000000001
299.563 0.26000000000000023
299.876 0.2200000000000002
300.19 0.2333400000000001
300.503 0.24334000000000033
300.816 0.2533400000000001
301.129 0.22667000000000037
301.442 0.2533400000000001
301.756 0.27
302.071 0.22999999999999998
302.384 0.2466700000000004
302.697 0.2799999999999998
303.01 0.22334000000000032
303.323 0.21334000000000009
303.637 0.2333400000000001
303.95 0.2333400000000001
304.263 0.2566700000000002
304.576 0.1900000000000004
304.889 0.2200000000000002
305.202 0.27
305.515 0.2200000000000002
305.828 0.2533400000000001
306.141 0.22999999999999998
306.456 0.2333400000000001
306.769 0.25
307.082 0.2566700000000002
307.395 0.20999999999999996
307.708 0.22334000000000032
308.021 0.23667000000000016
308.334 0.20000000000000018
308.647 0.2733400000000006
308.96 0.2633399999999999
309.273 0.21334000000000009
