# Created: 2019-11-28 14:56:45.000890
# rshift intensity
55.3072 0.033330000000000304
55.6331 0.040000000000000036
55.9568 0.04333000000000009
56.2826 0.040000000000000036
56.6085 0.04333000000000009
56.9343 0.033330000000000304
57.2601 0.04333000000000009
57.5859 0.050000000000000266
57.9117 0.05333000000000032
58.2374 0.05667
58.5632 0.016669999999999963
58.8889 0.050000000000000266
59.2147 0.07667000000000002
59.5382 0.03000000000000025
59.864 0.05667
60.1897 0.07667000000000002
60.5154 0.04333000000000009
60.841 0.07667000000000002
61.1667 0.06000000000000005
61.4924 0.04333000000000009
61.818 0.08000000000000007
62.1437 0.06000000000000005
62.4671 0.07667000000000002
62.7927 0.07000000000000028
63.1183 0.050000000000000266
63.4439 0.0900000000000003
63.7695 0.07667000000000002
64.0951 0.08667000000000025
64.4206 0.09667000000000003
64.744 0.07000000000000028
65.0696 0.09667000000000003
65.3951 0.13332999999999995
65.7206 0.11332999999999993
66.0461 0.15332999999999997
66.3716 0.13000000000000034
66.6971 0.20333000000000023
67.0204 0.22666999999999993
67.3459 0.20000000000000018
67.6713 0.22999999999999998
67.9967 0.2400000000000002
68.3222 0.25
68.6476 0.2766700000000002
68.9708 0.26000000000000023
69.2962 0.22666999999999993
69.6216 0.24666999999999994
69.9469 0.2633300000000003
70.2723 0.23667000000000016
70.5976 0.2566700000000002
70.9208 0.20999999999999996
71.2461 0.20333000000000023
71.5715 0.20667000000000035
71.8968 0.18333000000000022
72.222 0.13667000000000007
72.5452 0.13667000000000007
72.8704 0.14000000000000012
73.1957 0.09667000000000003
73.5209 0.12667000000000028
73.8462 0.07333000000000034
74.1692 0.08000000000000007
74.4944 0.05667
74.8196 0.05667
75.1448 0.07000000000000028
75.4678 0.05667
75.793 0.05333000000000032
76.1182 0.023330000000000073
76.4433 0.05333000000000032
76.7684 0.05667
77.0914 0.013330000000000286
77.4165 0.016669999999999963
77.7416 0.033330000000000304
78.0667 0.04667000000000021
78.3896 0.033330000000000304
78.7147 0.04333000000000009
79.0397 0.04333000000000009
79.3648 0.033330000000000304
79.6876 0.04667000000000021
80.0127 0.05333000000000032
80.3377 0.040000000000000036
80.6627 0.03666999999999998
80.9855 0.05667
81.3105 0.03000000000000025
81.6354 0.04667000000000021
81.9604 0.040000000000000036
82.2832 0.013330000000000286
82.6081 0.03000000000000025
82.933 0.040000000000000036
83.2558 0.0
83.5807 0.03000000000000025
83.9055 0.020000000000000018
84.2304 0.04667000000000021
84.5531 0.026670000000000194
84.878 0.020000000000000018
85.2028 0.04333000000000009
85.5255 0.03000000000000025
85.8503 0.05667
86.1751 0.03666999999999998
86.4978 0.04333000000000009
86.8225 0.040000000000000036
87.1473 0.020000000000000018
87.4721 0.026670000000000194
87.7947 0.026670000000000194
88.1194 0.023330000000000073
88.4441 0.04333000000000009
88.7667 0.03000000000000025
89.0914 0.03000000000000025
89.4161 0.026670000000000194
89.7386 0.033330000000000304
90.0633 0.040000000000000036
90.3879 0.026670000000000194
90.7104 0.05667
91.0351 0.04667000000000021
91.3597 0.016669999999999963
91.6822 0.033330000000000304
92.0068 0.026670000000000194
92.3314 0.016669999999999963
92.6538 0.04333000000000009
92.9784 0.016669999999999963
93.3029 0.03666999999999998
93.6253 0.020000000000000018
93.9499 0.05333000000000032
94.2722 0.023330000000000073
94.5967 0.016669999999999963
94.9212 0.05667
95.2436 0.04333000000000009
95.5681 0.050000000000000266
95.8925 0.04667000000000021
96.2149 0.06667000000000023
96.5393 0.03666999999999998
96.8616 0.03000000000000025
97.186 0.04667000000000021
97.5104 0.04667000000000021
97.8327 0.06000000000000005
98.1571 0.05667
98.4814 0.04333000000000009
98.8037 0.04333000000000009
99.128 0.07667000000000002
99.4502 0.040000000000000036
99.7746 0.08000000000000007
100.099 0.04667000000000021
100.421 0.050000000000000266
100.745 0.050000000000000266
101.067 0.04333000000000009
101.392 0.040000000000000036
101.714 0.04333000000000009
102.038 0.023330000000000073
102.362 0.06000000000000005
102.684 0.03666999999999998
103.009 0.003330000000000055
103.331 0.03666999999999998
103.655 0.04667000000000021
103.977 0.040000000000000036
104.301 0.04333000000000009
104.625 0.03000000000000025
104.947 0.03000000000000025
105.271 0.03000000000000025
105.593 0.026670000000000194
105.918 0.050000000000000266
106.24 0.04667000000000021
106.564 0.040000000000000036
106.886 0.03000000000000025
107.21 0.040000000000000036
107.534 0.033330000000000304
107.856 0.033330000000000304
108.18 0.040000000000000036
108.502 0.026670000000000194
108.826 0.023330000000000073
109.147 0.003330000000000055
109.471 0.040000000000000036
109.793 0.026670000000000194
110.117 0.03666999999999998
110.439 0.03000000000000025
110.763 0.04333000000000009
111.085 0.04333000000000009
111.409 0.040000000000000036
111.731 0.026670000000000194
112.054 0.013330000000000286
112.376 0.04333000000000009
112.7 0.04667000000000021
113.022 0.006670000000000176
113.346 0.040000000000000036
113.667 0.040000000000000036
113.991 0.05333000000000032
114.313 0.033330000000000304
114.637 0.04333000000000009
114.958 0.03000000000000025
115.282 0.03666999999999998
115.604 0.05667
115.928 0.026670000000000194
116.249 0.023330000000000073
116.573 0.040000000000000036
116.895 0.05333000000000032
117.216 0.040000000000000036
117.54 0.07333000000000034
117.862 0.06000000000000005
118.185 0.05333000000000032
118.507 0.07333000000000034
118.83 0.020000000000000018
119.152 0.06000000000000005
119.476 0.07000000000000028
119.797 0.08000000000000007
120.121 0.07333000000000034
120.442 0.033330000000000304
120.764 0.03666999999999998
121.087 0.06667000000000023
121.409 0.050000000000000266
121.732 0.050000000000000266
122.054 0.06000000000000005
122.377 0.040000000000000036
122.699 0.06000000000000005
123.02 0.026670000000000194
123.344 0.05333000000000032
123.665 0.020000000000000018
123.988 0.03666999999999998
124.31 0.03666999999999998
124.631 0.03666999999999998
124.955 0.05333000000000032
125.276 0.03000000000000025
125.599 0.040000000000000036
125.921 0.020000000000000018
126.242 0.026670000000000194
126.565 0.040000000000000036
126.887 0.020000000000000018
127.21 0.033330000000000304
127.531 0.020000000000000018
127.852 0.040000000000000036
128.176 0.06000000000000005
128.497 0.033330000000000304
128.82 0.03000000000000025
129.141 0.050000000000000266
129.463 0.03000000000000025
129.786 0.06333000000000011
130.107 0.04333000000000009
130.428 0.05333000000000032
130.751 0.03666999999999998
131.073 0.03666999999999998
131.394 0.023330000000000073
131.717 0.03000000000000025
132.038 0.0
132.361 0.05667
132.682 0.050000000000000266
133.003 0.020000000000000018
133.326 0.04667000000000021
133.647 0.040000000000000036
133.969 0.016669999999999963
134.292 0.050000000000000266
134.613 0.05667
134.934 0.040000000000000036
135.257 0.03666999999999998
135.578 0.05333000000000032
135.899 0.033330000000000304
136.22 0.03666999999999998
136.543 0.040000000000000036
136.864 0.020000000000000018
137.184 0.040000000000000036
137.507 0.03666999999999998
137.828 0.023330000000000073
138.149 0.026670000000000194
138.472 0.03666999999999998
138.793 0.03666999999999998
139.114 0.013330000000000286
139.437 0.013330000000000286
139.758 0.033330000000000304
140.078 0.040000000000000036
140.399 0.010000000000000231
140.722 0.03666999999999998
141.043 0.06000000000000005
141.364 0.033330000000000304
141.687 0.03666999999999998
142.007 0.03666999999999998
142.328 0.03666999999999998
142.649 0.03666999999999998
142.972 0.03666999999999998
143.292 0.03000000000000025
143.613 0.06333000000000011
143.934 0.026670000000000194
144.256 0.07333000000000034
144.577 0.03666999999999998
144.898 0.040000000000000036
145.218 0.026670000000000194
145.541 0.033330000000000304
145.862 0.03000000000000025
146.182 0.033330000000000304
146.503 0.04667000000000021
146.826 0.026670000000000194
147.146 0.023330000000000073
147.467 0.04333000000000009
147.787 0.026670000000000194
148.11 0.033330000000000304
148.43 0.023330000000000073
148.751 0.03666999999999998
149.071 0.03666999999999998
149.392 0.05333000000000032
149.715 0.023330000000000073
150.035 0.040000000000000036
150.355 0.04667000000000021
150.676 0.026670000000000194
150.996 0.03000000000000025
151.319 0.023330000000000073
151.639 0.04333000000000009
151.96 0.050000000000000266
152.28 0.04333000000000009
152.6 0.026670000000000194
152.923 0.020000000000000018
153.243 0.06667000000000023
153.564 0.050000000000000266
153.884 0.05667
154.204 0.03000000000000025
154.527 0.05667
154.847 0.03666999999999998
155.167 0.05333000000000032
155.488 0.03666999999999998
155.808 0.04667000000000021
156.128 0.050000000000000266
156.45 0.06000000000000005
156.771 0.04667000000000021
157.091 0.06667000000000023
157.411 0.04333000000000009
157.731 0.033330000000000304
158.052 0.050000000000000266
158.372 0.050000000000000266
158.694 0.05667
159.014 0.06000000000000005
159.334 0.04667000000000021
159.654 0.040000000000000036
159.975 0.020000000000000018
160.295 0.05333000000000032
160.615 0.03666999999999998
160.937 0.06000000000000005
161.257 0.040000000000000036
161.577 0.016669999999999963
161.897 0.040000000000000036
162.217 0.04333000000000009
162.537 0.050000000000000266
162.857 0.04333000000000009
163.177 0.026670000000000194
163.499 0.06667000000000023
163.819 0.026670000000000194
164.139 0.026670000000000194
164.459 0.016669999999999963
164.779 0.04333000000000009
165.099 0.033330000000000304
165.419 0.05667
165.739 0.04333000000000009
166.059 0.05667
166.379 0.033330000000000304
166.699 0.023330000000000073
167.021 0.05333000000000032
167.341 0.040000000000000036
167.661 0.033330000000000304
167.98 0.03666999999999998
168.3 0.033330000000000304
168.62 0.05333000000000032
168.94 0.05667
169.26 0.040000000000000036
169.58 0.026670000000000194
169.899 0.04333000000000009
170.219 0.023330000000000073
170.539 0.010000000000000231
170.859 0.040000000000000036
171.178 0.033330000000000304
171.498 0.05333000000000032
171.818 0.05667
172.137 0.033330000000000304
172.459 0.03666999999999998
172.779 0.03000000000000025
173.099 0.020000000000000018
173.418 0.03000000000000025
173.738 0.04667000000000021
174.058 0.013330000000000286
174.377 0.023330000000000073
174.697 0.03666999999999998
175.016 0.040000000000000036
175.336 0.033330000000000304
175.656 0.033330000000000304
175.975 0.03666999999999998
176.295 0.040000000000000036
176.614 0.026670000000000194
176.934 0.050000000000000266
177.253 0.020000000000000018
177.573 0.033330000000000304
177.892 0.026670000000000194
178.212 0.040000000000000036
178.531 0.06667000000000023
178.851 0.023330000000000073
179.17 0.026670000000000194
179.49 0.013330000000000286
179.809 0.026670000000000194
180.129 0.050000000000000266
180.448 0.04667000000000021
180.767 0.06333000000000011
181.087 0.03666999999999998
181.406 0.023330000000000073
181.726 0.020000000000000018
182.045 0.013330000000000286
182.362 0.013330000000000286
182.682 0.04333000000000009
183.001 0.040000000000000036
183.32 0.04667000000000021
183.64 0.03000000000000025
183.959 0.006670000000000176
184.278 0.040000000000000036
184.597 0.04333000000000009
184.917 0.03000000000000025
185.236 0.040000000000000036
185.555 0.03666999999999998
185.874 0.03666999999999998
186.194 0.04667000000000021
186.513 0.010000000000000231
186.832 0.026670000000000194
187.151 0.05333000000000032
187.47 0.016669999999999963
187.787 0.033330000000000304
188.107 0.05667
188.426 0.013330000000000286
188.745 0.026670000000000194
189.064 0.03666999999999998
189.383 0.03666999999999998
189.702 0.06667000000000023
190.021 0.026670000000000194
190.34 0.020000000000000018
190.66 0.03666999999999998
190.976 0.016669999999999963
191.296 0.033330000000000304
191.615 0.040000000000000036
191.934 0.033330000000000304
192.253 0.016669999999999963
192.572 0.016669999999999963
192.891 0.020000000000000018
193.21 0.026670000000000194
193.529 0.04333000000000009
193.845 0.026670000000000194
194.164 0.040000000000000036
194.483 0.03666999999999998
194.802 0.010000000000000231
195.121 0.04333000000000009
195.44 0.05667
195.759 0.026670000000000194
196.076 0.03666999999999998
196.395 0.03666999999999998
196.713 0.03666999999999998
197.032 0.026670000000000194
197.351 0.040000000000000036
197.67 0.026670000000000194
197.987 0.03000000000000025
198.305 0.010000000000000231
198.624 0.04333000000000009
198.943 0.050000000000000266
199.262 0.050000000000000266
199.581 0.06000000000000005
199.897 0.04667000000000021
200.216 0.04667000000000021
200.535 0.03000000000000025
200.853 0.03000000000000025
201.172 0.050000000000000266
201.491 0.04667000000000021
201.807 0.040000000000000036
202.126 0.05667
202.445 0.023330000000000073
202.763 0.04333000000000009
203.082 0.03000000000000025
203.399 0.04667000000000021
203.717 0.04333000000000009
204.036 0.04333000000000009
204.354 0.040000000000000036
204.673 0.040000000000000036
204.989 0.03000000000000025
205.308 0.023330000000000073
205.627 0.06333000000000011
205.945 0.03666999999999998
206.262 0.020000000000000018
206.58 0.04333000000000009
206.899 0.04667000000000021
207.217 0.04333000000000009
207.533 0.050000000000000266
207.852 0.03000000000000025
208.17 0.04667000000000021
208.489 0.040000000000000036
208.805 0.050000000000000266
209.124 0.06333000000000011
209.442 0.026670000000000194
209.761 0.050000000000000266
210.077 0.040000000000000036
210.395 0.040000000000000036
210.714 0.03666999999999998
211.032 0.06667000000000023
211.348 0.04667000000000021
211.667 0.05333000000000032
211.985 0.03666999999999998
212.303 0.03666999999999998
212.619 0.03666999999999998
212.938 0.03666999999999998
213.256 0.013330000000000286
213.572 0.05333000000000032
213.89 0.06000000000000005
214.209 0.04667000000000021
214.527 0.03666999999999998
214.843 0.033330000000000304
215.161 0.03000000000000025
215.48 0.05333000000000032
215.796 0.040000000000000036
216.114 0.08000000000000007
216.432 0.033330000000000304
216.748 0.05333000000000032
217.066 0.07667000000000002
217.384 0.05333000000000032
217.703 0.040000000000000036
218.019 0.04333000000000009
218.337 0.06333000000000011
218.655 0.07667000000000002
218.971 0.05667
219.289 0.06333000000000011
219.607 0.05333000000000032
219.923 0.06333000000000011
220.241 0.03666999999999998
220.559 0.05667
220.875 0.04333000000000009
221.193 0.07667000000000002
221.511 0.04667000000000021
221.827 0.050000000000000266
222.145 0.07000000000000028
222.461 0.05667
222.779 0.0900000000000003
223.097 0.07667000000000002
223.413 0.06667000000000023
223.731 0.04667000000000021
224.048 0.06333000000000011
224.364 0.06333000000000011
224.682 0.08000000000000007
225.0 0.050000000000000266
225.316 0.07000000000000028
225.634 0.05667
225.949 0.06000000000000005
226.267 0.08000000000000007
226.585 0.04333000000000009
226.901 0.03000000000000025
227.219 0.06333000000000011
227.534 0.050000000000000266
227.852 0.09667000000000003
228.17 0.023330000000000073
228.486 0.07000000000000028
228.803 0.06333000000000011
229.119 0.07333000000000034
229.437 0.07333000000000034
229.755 0.050000000000000266
230.07 0.05333000000000032
230.388 0.06333000000000011
230.703 0.06000000000000005
231.021 0.07667000000000002
231.337 0.06333000000000011
231.654 0.05667
231.972 0.07333000000000034
232.288 0.07000000000000028
232.605 0.05333000000000032
232.921 0.07000000000000028
233.238 0.040000000000000036
233.554 0.04667000000000021
233.871 0.05333000000000032
234.189 0.050000000000000266
234.504 0.05333000000000032
234.822 0.033330000000000304
235.137 0.06000000000000005
235.455 0.04667000000000021
235.77 0.04667000000000021
236.088 0.04667000000000021
236.403 0.05667
236.721 0.08000000000000007
237.036 0.050000000000000266
237.354 0.050000000000000266
237.669 0.026670000000000194
237.986 0.050000000000000266
238.302 0.06333000000000011
238.619 0.05667
238.935 0.06000000000000005
239.252 0.050000000000000266
239.567 0.06333000000000011
239.885 0.040000000000000036
240.202 0.06667000000000023
240.517 0.06000000000000005
240.833 0.04333000000000009
241.15 0.023330000000000073
241.465 0.06333000000000011
241.782 0.050000000000000266
242.098 0.023330000000000073
242.415 0.04333000000000009
242.73 0.04667000000000021
243.047 0.07333000000000034
243.363 0.07000000000000028
243.68 0.050000000000000266
243.995 0.05667
244.312 0.04333000000000009
244.627 0.03666999999999998
244.945 0.04333000000000009
245.26 0.040000000000000036
245.577 0.03000000000000025
245.892 0.05667
246.209 0.023330000000000073
246.524 0.05667
246.839 0.050000000000000266
247.156 0.040000000000000036
247.471 0.050000000000000266
247.788 0.04333000000000009
248.103 0.03666999999999998
248.421 0.010000000000000231
248.735 0.06667000000000023
249.053 0.050000000000000266
249.368 0.06667000000000023
249.682 0.040000000000000036
249.999 0.033330000000000304
250.314 0.023330000000000073
250.631 0.026670000000000194
250.946 0.06667000000000023
251.261 0.04333000000000009
251.578 0.040000000000000036
251.893 0.03000000000000025
252.21 0.03666999999999998
252.525 0.040000000000000036
252.842 0.026670000000000194
253.157 0.07333000000000034
253.472 0.06667000000000023
253.788 0.026670000000000194
254.103 0.05667
254.418 0.04333000000000009
254.735 0.013330000000000286
255.05 0.03666999999999998
255.367 0.050000000000000266
255.681 0.07000000000000028
255.996 0.026670000000000194
256.313 0.040000000000000036
256.628 0.06667000000000023
256.942 0.033330000000000304
257.259 0.05333000000000032
257.574 0.013330000000000286
257.89 0.05667
258.205 0.05333000000000032
258.52 0.023330000000000073
258.837 0.04333000000000009
259.151 0.050000000000000266
259.466 0.026670000000000194
259.782 0.06333000000000011
260.097 0.013330000000000286
260.412 0.06333000000000011
260.728 0.040000000000000036
261.043 0.016669999999999963
261.357 0.08000000000000007
261.674 0.040000000000000036
261.989 0.03000000000000025
262.303 0.04333000000000009
262.62 0.06000000000000005
262.934 0.040000000000000036
263.249 0.050000000000000266
263.565 0.05333000000000032
263.88 0.06333000000000011
264.194 0.05667
264.511 0.04667000000000021
264.825 0.03666999999999998
265.14 0.03666999999999998
265.454 0.07000000000000028
265.771 0.050000000000000266
266.085 0.04333000000000009
266.399 0.03666999999999998
266.716 0.05667
267.03 0.05667
267.344 0.05333000000000032
267.659 0.033330000000000304
267.975 0.050000000000000266
268.29 0.04333000000000009
268.604 0.06667000000000023
268.92 0.06333000000000011
269.235 0.023330000000000073
269.549 0.05667
269.863 0.06667000000000023
270.179 0.04333000000000009
270.494 0.06333000000000011
270.808 0.04333000000000009
271.122 0.05333000000000032
271.438 0.05333000000000032
271.753 0.04667000000000021
272.067 0.04333000000000009
272.381 0.05333000000000032
272.697 0.03000000000000025
273.011 0.04667000000000021
273.326 0.05667
273.64 0.03666999999999998
273.956 0.03666999999999998
274.27 0.050000000000000266
274.584 0.04333000000000009
274.898 0.05667
275.212 0.03000000000000025
275.528 0.050000000000000266
275.843 0.026670000000000194
276.157 0.06333000000000011
276.471 0.040000000000000036
276.787 0.023330000000000073
277.101 0.03000000000000025
277.415 0.040000000000000036
277.729 0.06333000000000011
278.043 0.033330000000000304
278.359 0.06000000000000005
278.673 0.04667000000000021
278.987 0.06667000000000023
279.301 0.05667
279.615 0.040000000000000036
279.929 0.020000000000000018
280.245 0.04667000000000021
280.558 0.06000000000000005
280.872 0.050000000000000266
281.186 0.050000000000000266
281.5 0.050000000000000266
281.814 0.03666999999999998
282.13 0.04667000000000021
282.444 0.05333000000000032
282.758 0.06333000000000011
283.071 0.040000000000000036
283.385 0.050000000000000266
283.699 0.040000000000000036
284.015 0.05667
284.329 0.023330000000000073
284.642 0.04667000000000021
284.956 0.06000000000000005
285.27 0.06000000000000005
285.584 0.03000000000000025
285.897 0.05667
286.213 0.04667000000000021
286.527 0.03666999999999998
286.841 0.04333000000000009
