# Created: 2019-11-28 14:59:00.527912
# rshift intensity
86.6238 0.08333000000000013
86.9486 0.10000000000000009
87.2712 0.09666000000000041
87.596 0.0900000000000003
87.9207 0.0900000000000003
88.2454 0.08666000000000018
88.5702 0.12333000000000016
88.8927 0.10333000000000014
89.2174 0.07333000000000034
89.5421 0.08000000000000007
89.8668 0.08333000000000013
90.1914 0.11333000000000037
90.514 0.0900000000000003
90.8386 0.0766600000000004
91.1632 0.07333000000000034
91.4878 0.13000000000000034
91.8124 0.09666000000000041
92.1349 0.08666000000000018
92.4595 0.10333000000000014
92.7841 0.09333000000000036
93.1086 0.10000000000000009
93.431 0.07333000000000034
93.7556 0.09666000000000041
94.0801 0.0900000000000003
94.4046 0.09333000000000036
94.727 0.0900000000000003
95.0515 0.10000000000000009
95.376 0.0766600000000004
95.7004 0.05666000000000038
96.0227 0.09333000000000036
96.3472 0.10000000000000009
96.6716 0.08333000000000013
96.9961 0.10000000000000009
97.3183 0.0766600000000004
97.6427 0.14333000000000018
97.9671 0.0900000000000003
98.2915 0.1066600000000002
98.6137 0.10333000000000014
98.9381 0.1066600000000002
99.2624 0.0900000000000003
99.5868 0.11000000000000032
99.909 0.12666000000000022
100.233 0.1533300000000004
100.558 0.10333000000000014
100.88 0.11000000000000032
101.204 0.13000000000000034
101.528 0.11333000000000037
101.853 0.12666000000000022
102.175 0.0900000000000003
102.499 0.14000000000000012
102.823 0.1333300000000004
103.145 0.12333000000000016
103.469 0.11665999999999999
103.794 0.1066600000000002
104.116 0.09666000000000041
104.44 0.0900000000000003
104.764 0.08666000000000018
105.086 0.1333300000000004
105.41 0.11665999999999999
105.734 0.10333000000000014
106.056 0.11665999999999999
106.38 0.08666000000000018
106.704 0.08000000000000007
107.026 0.09666000000000041
107.35 0.10333000000000014
107.674 0.09666000000000041
107.996 0.10000000000000009
108.32 0.10000000000000009
108.644 0.08000000000000007
108.966 0.10333000000000014
109.29 0.08333000000000013
109.614 0.08333000000000013
109.936 0.0900000000000003
110.26 0.11000000000000032
110.584 0.08333000000000013
110.906 0.1066600000000002
111.23 0.09666000000000041
111.552 0.11333000000000037
111.875 0.10000000000000009
112.199 0.08666000000000018
112.521 0.08000000000000007
112.845 0.1066600000000002
113.169 0.13666
113.491 0.0766600000000004
113.814 0.0766600000000004
114.136 0.1066600000000002
114.46 0.10333000000000014
114.784 0.07333000000000034
115.105 0.0900000000000003
115.429 0.11000000000000032
115.751 0.1066600000000002
116.075 0.10333000000000014
116.398 0.0900000000000003
116.72 0.10333000000000014
117.044 0.09333000000000036
117.365 0.09333000000000036
117.689 0.11000000000000032
118.013 0.10000000000000009
118.334 0.11333000000000037
118.658 0.13000000000000034
118.979 0.10000000000000009
119.303 0.09333000000000036
119.625 0.10000000000000009
119.948 0.07000000000000028
120.272 0.10000000000000009
120.593 0.09666000000000041
120.917 0.08666000000000018
121.238 0.09666000000000041
121.562 0.13000000000000034
121.883 0.0900000000000003
122.207 0.12666000000000022
122.528 0.11000000000000032
122.852 0.0766600000000004
123.175 0.11333000000000037
123.497 0.1066600000000002
123.82 0.0900000000000003
124.142 0.09666000000000041
124.465 0.11000000000000032
124.786 0.11333000000000037
125.11 0.05333000000000032
125.431 0.08333000000000013
125.755 0.07333000000000034
126.076 0.0766600000000004
126.399 0.08666000000000018
126.721 0.07000000000000028
127.044 0.08000000000000007
127.365 0.09333000000000036
127.689 0.1200000000000001
128.01 0.10000000000000009
128.333 0.1066600000000002
128.654 0.08000000000000007
128.978 0.08666000000000018
129.299 0.11333000000000037
129.622 0.1066600000000002
129.943 0.07333000000000034
130.267 0.0766600000000004
130.588 0.11000000000000032
130.911 0.0900000000000003
131.232 0.0900000000000003
131.555 0.10000000000000009
131.876 0.1066600000000002
132.2 0.10000000000000009
132.521 0.06666000000000016
132.844 0.09333000000000036
133.165 0.08000000000000007
133.488 0.10000000000000009
133.809 0.11333000000000037
134.132 0.09666000000000041
134.453 0.09666000000000041
134.774 0.09666000000000041
135.097 0.1066600000000002
135.418 0.1066600000000002
135.741 0.09333000000000036
136.062 0.09333000000000036
136.385 0.06333000000000011
136.706 0.08333000000000013
137.029 0.08666000000000018
137.35 0.1066600000000002
137.671 0.06000000000000005
137.994 0.11000000000000032
138.315 0.08666000000000018
138.638 0.08333000000000013
138.959 0.09666000000000041
139.282 0.09333000000000036
139.603 0.0900000000000003
139.923 0.10000000000000009
140.246 0.0900000000000003
140.567 0.07333000000000034
140.89 0.10000000000000009
141.211 0.09666000000000041
141.532 0.06333000000000011
141.854 0.1066600000000002
142.175 0.1200000000000001
142.498 0.08666000000000018
142.819 0.09333000000000036
143.139 0.08000000000000007
143.462 0.09666000000000041
143.783 0.0766600000000004
144.106 0.08666000000000018
144.426 0.1066600000000002
144.747 0.06666000000000016
145.07 0.08333000000000013
145.39 0.0766600000000004
145.711 0.08333000000000013
146.034 0.09666000000000041
146.354 0.0900000000000003
146.675 0.08000000000000007
146.998 0.11000000000000032
147.318 0.07333000000000034
147.641 0.10000000000000009
147.961 0.09333000000000036
148.282 0.10333000000000014
148.605 0.08000000000000007
148.925 0.11000000000000032
149.246 0.08333000000000013
149.568 0.09333000000000036
149.889 0.040000000000000036
150.209 0.08000000000000007
150.532 0.0766600000000004
150.852 0.10000000000000009
151.172 0.10000000000000009
151.495 0.08666000000000018
151.815 0.09666000000000041
152.136 0.0900000000000003
152.458 0.10333000000000014
152.779 0.07000000000000028
153.099 0.11333000000000037
153.422 0.09666000000000041
153.742 0.11665999999999999
154.062 0.08666000000000018
154.382 0.08333000000000013
154.705 0.07000000000000028
155.025 0.10333000000000014
155.345 0.10000000000000009
155.668 0.11333000000000037
155.988 0.09333000000000036
156.308 0.06000000000000005
156.631 0.10000000000000009
156.951 0.08333000000000013
157.271 0.07333000000000034
157.591 0.09666000000000041
157.914 0.11000000000000032
158.234 0.0766600000000004
158.554 0.0766600000000004
158.874 0.11333000000000037
159.197 0.09333000000000036
159.517 0.08333000000000013
159.837 0.08666000000000018
160.159 0.1200000000000001
160.479 0.0900000000000003
160.799 0.10000000000000009
161.119 0.07333000000000034
161.441 0.050000000000000266
161.762 0.11000000000000032
162.082 0.06000000000000005
162.402 0.08666000000000018
162.724 0.09333000000000036
163.044 0.08333000000000013
163.364 0.08333000000000013
163.684 0.08000000000000007
164.004 0.0766600000000004
164.326 0.07333000000000034
164.646 0.0766600000000004
164.966 0.10333000000000014
165.286 0.0900000000000003
165.608 0.08666000000000018
165.928 0.06666000000000016
166.248 0.07333000000000034
166.568 0.0900000000000003
166.887 0.0900000000000003
167.209 0.03666000000000036
167.529 0.09333000000000036
167.849 0.06666000000000016
168.169 0.07333000000000034
168.489 0.07000000000000028
168.811 0.09666000000000041
169.131 0.08000000000000007
169.45 0.09666000000000041
169.77 0.0766600000000004
170.09 0.0766600000000004
170.412 0.11000000000000032
170.732 0.08333000000000013
171.051 0.0900000000000003
171.371 0.06333000000000011
171.691 0.10333000000000014
172.01 0.08333000000000013
172.332 0.06666000000000016
172.652 0.06333000000000011
172.972 0.0766600000000004
173.291 0.07333000000000034
173.611 0.1066600000000002
173.931 0.0900000000000003
174.252 0.05666000000000038
174.572 0.0900000000000003
174.892 0.07333000000000034
175.211 0.08333000000000013
175.531 0.10333000000000014
175.85 0.1066600000000002
176.17 0.08000000000000007
176.492 0.08666000000000018
176.811 0.11333000000000037
177.131 0.06000000000000005
177.45 0.11333000000000037
177.77 0.07000000000000028
178.089 0.08000000000000007
178.409 0.08666000000000018
178.728 0.09333000000000036
179.05 0.10000000000000009
179.369 0.10000000000000009
179.689 0.10333000000000014
180.008 0.08000000000000007
180.327 0.09333000000000036
180.647 0.0766600000000004
180.966 0.0766600000000004
181.286 0.08000000000000007
181.605 0.0766600000000004
181.924 0.07000000000000028
182.246 0.11333000000000037
182.565 0.11333000000000037
182.885 0.06666000000000016
183.204 0.08000000000000007
183.523 0.0900000000000003
183.843 0.09666000000000041
184.162 0.08000000000000007
184.481 0.0766600000000004
184.8 0.09333000000000036
185.12 0.0900000000000003
185.439 0.08000000000000007
185.758 0.08000000000000007
186.077 0.09333000000000036
186.397 0.09666000000000041
186.716 0.05666000000000038
187.037 0.09333000000000036
187.356 0.08666000000000018
187.675 0.07000000000000028
187.995 0.12333000000000016
188.314 0.06333000000000011
188.633 0.10000000000000009
188.952 0.11000000000000032
189.271 0.09666000000000041
189.59 0.10333000000000014
189.909 0.0900000000000003
190.228 0.09666000000000041
190.548 0.11333000000000037
190.867 0.08000000000000007
191.186 0.0900000000000003
191.505 0.1200000000000001
191.824 0.1066600000000002
192.143 0.0900000000000003
192.462 0.1333300000000004
192.781 0.10333000000000014
193.1 0.08666000000000018
193.419 0.0900000000000003
193.738 0.06333000000000011
194.057 0.08000000000000007
194.376 0.06666000000000016
194.694 0.11665999999999999
195.013 0.09333000000000036
195.332 0.0900000000000003
195.651 0.0900000000000003
195.97 0.10333000000000014
196.289 0.09333000000000036
196.608 0.08333000000000013
196.927 0.08666000000000018
197.246 0.0900000000000003
197.564 0.08666000000000018
197.883 0.10000000000000009
198.202 0.09333000000000036
198.521 0.08666000000000018
198.84 0.06000000000000005
199.158 0.09333000000000036
199.477 0.0766600000000004
199.796 0.10333000000000014
200.115 0.07333000000000034
200.431 0.0900000000000003
200.75 0.08666000000000018
201.069 0.06333000000000011
201.387 0.08333000000000013
201.706 0.08333000000000013
202.025 0.09333000000000036
202.343 0.1066600000000002
202.662 0.1200000000000001
202.981 0.11000000000000032
203.299 0.11333000000000037
203.618 0.07333000000000034
203.937 0.10000000000000009
204.255 0.10000000000000009
204.574 0.08666000000000018
204.89 0.08666000000000018
205.209 0.12666000000000022
205.527 0.09333000000000036
205.846 0.11000000000000032
206.165 0.12666000000000022
206.483 0.11000000000000032
206.802 0.1066600000000002
207.12 0.09666000000000041
207.439 0.12333000000000016
207.757 0.11000000000000032
208.073 0.0766600000000004
208.392 0.10000000000000009
208.71 0.1066600000000002
209.029 0.1066600000000002
209.347 0.0900000000000003
209.666 0.10333000000000014
209.984 0.07333000000000034
210.302 0.12333000000000016
210.619 0.09666000000000041
210.937 0.11665999999999999
211.255 0.10333000000000014
211.574 0.10000000000000009
211.892 0.11000000000000032
212.21 0.1066600000000002
212.529 0.06333000000000011
212.845 0.0900000000000003
213.163 0.1200000000000001
213.482 0.09666000000000041
213.8 0.06666000000000016
214.118 0.08666000000000018
214.436 0.08666000000000018
214.755 0.13000000000000034
215.071 0.10333000000000014
215.389 0.1066600000000002
215.707 0.09333000000000036
216.025 0.11000000000000032
216.344 0.0766600000000004
216.66 0.10000000000000009
216.978 0.10333000000000014
217.296 0.11000000000000032
217.614 0.10000000000000009
217.932 0.08666000000000018
218.25 0.10000000000000009
218.566 0.11333000000000037
218.884 0.1200000000000001
219.203 0.10000000000000009
219.521 0.14333000000000018
219.839 0.11333000000000037
220.155 0.11000000000000032
220.473 0.08666000000000018
220.791 0.12666000000000022
221.109 0.11665999999999999
221.425 0.08333000000000013
221.743 0.11333000000000037
222.061 0.12666000000000022
222.379 0.12666000000000022
222.697 0.09666000000000041
223.013 0.10333000000000014
223.33 0.12333000000000016
223.648 0.10333000000000014
223.966 0.1200000000000001
224.282 0.11000000000000032
224.6 0.11333000000000037
224.918 0.10333000000000014
225.236 0.11665999999999999
225.552 0.1200000000000001
225.869 0.13000000000000034
226.187 0.1200000000000001
226.505 0.11333000000000037
226.821 0.12666000000000022
227.139 0.11000000000000032
227.457 0.13000000000000034
227.774 0.11665999999999999
228.09 0.1066600000000002
228.408 0.11333000000000037
228.726 0.1200000000000001
229.043 0.12666000000000022
229.359 0.11333000000000037
229.677 0.1333300000000004
229.994 0.11000000000000032
230.31 0.1066600000000002
230.628 0.09333000000000036
230.945 0.11665999999999999
231.261 0.11333000000000037
231.579 0.1200000000000001
231.896 0.08000000000000007
232.214 0.08666000000000018
232.529 0.08000000000000007
232.847 0.11333000000000037
233.165 0.10333000000000014
233.48 0.07000000000000028
233.798 0.11333000000000037
234.115 0.11000000000000032
234.431 0.09666000000000041
234.748 0.08333000000000013
235.066 0.1066600000000002
235.381 0.13000000000000034
235.699 0.10000000000000009
236.016 0.09666000000000041
236.332 0.07333000000000034
236.649 0.11333000000000037
236.967 0.11000000000000032
237.282 0.1200000000000001
237.6 0.0900000000000003
237.917 0.10333000000000014
238.232 0.09333000000000036
238.55 0.06000000000000005
238.867 0.0900000000000003
239.183 0.06000000000000005
239.5 0.09666000000000041
239.817 0.09333000000000036
240.133 0.11333000000000037
240.45 0.09333000000000036
240.765 0.1066600000000002
241.083 0.11000000000000032
241.4 0.07333000000000034
241.715 0.08666000000000018
242.032 0.08666000000000018
242.35 0.10333000000000014
242.665 0.08333000000000013
242.982 0.11000000000000032
243.297 0.09333000000000036
243.615 0.10000000000000009
243.932 0.09666000000000041
244.247 0.08333000000000013
244.564 0.11000000000000032
244.879 0.06666000000000016
245.197 0.12333000000000016
245.514 0.10000000000000009
245.829 0.09666000000000041
246.146 0.08333000000000013
246.461 0.08666000000000018
246.778 0.0900000000000003
247.095 0.09333000000000036
247.41 0.11665999999999999
247.728 0.08000000000000007
248.043 0.11000000000000032
248.36 0.10333000000000014
248.675 0.06666000000000016
248.992 0.08333000000000013
249.307 0.07333000000000034
249.624 0.1200000000000001
249.941 0.09333000000000036
250.256 0.10000000000000009
250.573 0.0766600000000004
250.888 0.09333000000000036
251.205 0.09333000000000036
251.519 0.09666000000000041
251.836 0.06333000000000011
252.151 0.08666000000000018
252.468 0.08000000000000007
252.783 0.10000000000000009
253.1 0.11000000000000032
253.417 0.07333000000000034
253.732 0.13000000000000034
254.049 0.1200000000000001
254.363 0.1066600000000002
254.68 0.08333000000000013
254.995 0.08333000000000013
255.312 0.10000000000000009
255.627 0.10333000000000014
255.944 0.10333000000000014
256.258 0.10000000000000009
256.575 0.10333000000000014
256.89 0.0766600000000004
257.207 0.11333000000000037
257.521 0.10333000000000014
257.838 0.08666000000000018
258.153 0.11000000000000032
258.469 0.07000000000000028
258.784 0.12333000000000016
259.101 0.08333000000000013
259.415 0.0900000000000003
259.732 0.09333000000000036
260.047 0.09333000000000036
260.363 0.08000000000000007
260.678 0.08000000000000007
260.993 0.10000000000000009
261.309 0.11333000000000037
261.624 0.09333000000000036
261.94 0.11333000000000037
262.255 0.09333000000000036
262.572 0.09666000000000041
262.886 0.09333000000000036
263.203 0.10333000000000014
263.517 0.0900000000000003
263.834 0.08666000000000018
264.148 0.1066600000000002
264.463 0.08333000000000013
264.779 0.08000000000000007
265.094 0.1066600000000002
265.41 0.09666000000000041
265.724 0.11665999999999999
266.041 0.09666000000000041
266.355 0.08333000000000013
266.67 0.10000000000000009
266.986 0.09333000000000036
267.3 0.10333000000000014
267.617 0.0766600000000004
267.931 0.13000000000000034
268.248 0.09666000000000041
268.562 0.09666000000000041
268.876 0.1066600000000002
269.193 0.10333000000000014
269.507 0.09333000000000036
269.823 0.11333000000000037
270.138 0.1200000000000001
270.452 0.10333000000000014
270.768 0.08666000000000018
271.082 0.0900000000000003
271.397 0.11665999999999999
271.713 0.10000000000000009
272.027 0.10000000000000009
272.343 0.11333000000000037
272.657 0.10000000000000009
272.972 0.08333000000000013
273.288 0.09333000000000036
273.602 0.11665999999999999
273.916 0.08000000000000007
274.232 0.0900000000000003
274.546 0.09333000000000036
274.863 0.09666000000000041
275.177 0.11665999999999999
275.491 0.08666000000000018
275.807 0.09333000000000036
276.121 0.09333000000000036
276.435 0.10333000000000014
276.751 0.11333000000000037
277.065 0.11333000000000037
277.379 0.08000000000000007
277.695 0.09333000000000036
278.009 0.1066600000000002
278.323 0.10000000000000009
278.639 0.11000000000000032
278.953 0.12666000000000022
279.267 0.09666000000000041
279.583 0.11000000000000032
279.897 0.14666000000000023
280.211 0.11665999999999999
280.525 0.13000000000000034
280.841 0.07333000000000034
281.155 0.11665999999999999
281.469 0.10333000000000014
281.785 0.0766600000000004
282.099 0.12666000000000022
282.412 0.07000000000000028
282.728 0.1200000000000001
283.042 0.11665999999999999
283.356 0.09333000000000036
283.67 0.1066600000000002
283.986 0.12666000000000022
284.299 0.11333000000000037
284.613 0.14000000000000012
284.929 0.11000000000000032
285.243 0.10333000000000014
285.556 0.13000000000000034
285.87 0.14333000000000018
286.186 0.09666000000000041
286.5 0.09666000000000041
286.813 0.11665999999999999
287.127 0.10000000000000009
287.443 0.0900000000000003
287.756 0.14000000000000012
288.07 0.0900000000000003
288.384 0.09666000000000041
288.699 0.09666000000000041
289.013 0.11000000000000032
289.327 0.11333000000000037
289.64 0.10000000000000009
289.956 0.1066600000000002
290.27 0.0900000000000003
290.583 0.09333000000000036
290.897 0.11665999999999999
291.21 0.13000000000000034
291.526 0.10333000000000014
291.839 0.1333300000000004
292.153 0.09666000000000041
292.466 0.11333000000000037
292.782 0.1066600000000002
293.095 0.09333000000000036
293.409 0.13000000000000034
293.722 0.1066600000000002
294.036 0.10000000000000009
294.351 0.1200000000000001
294.665 0.14333000000000018
294.978 0.11333000000000037
295.291 0.11000000000000032
295.605 0.11665999999999999
295.92 0.09666000000000041
296.234 0.12333000000000016
296.547 0.08333000000000013
296.86 0.1200000000000001
297.174 0.0900000000000003
297.487 0.1066600000000002
297.802 0.10333000000000014
298.116 0.1633300000000002
298.429 0.1533300000000004
298.742 0.09333000000000036
299.056 0.11000000000000032
299.369 0.13666
299.684 0.1200000000000001
299.997 0.11665999999999999
300.311 0.16000000000000014
300.624 0.09666000000000041
300.937 0.06666000000000016
301.25 0.1333300000000004
301.564 0.11665999999999999
301.879 0.11665999999999999
302.192 0.13000000000000034
302.505 0.11000000000000032
302.818 0.12666000000000022
303.131 0.14000000000000012
303.445 0.1066600000000002
303.758 0.1066600000000002
304.071 0.12666000000000022
304.386 0.11665999999999999
304.699 0.1333300000000004
305.012 0.1066600000000002
305.325 0.11665999999999999
305.638 0.13666
305.951 0.14000000000000012
306.264 0.07000000000000028
306.577 0.10000000000000009
306.89 0.14000000000000012
307.203 0.13000000000000034
307.518 0.13666
307.831 0.12666000000000022
308.144 0.15000000000000036
308.457 0.13666
308.77 0.1333300000000004
309.083 0.15666000000000002
309.396 0.13000000000000034
309.709 0.13000000000000034
310.022 0.14333000000000018
310.335 0.12666000000000022
310.648 0.11665999999999999
310.961 0.12666000000000022
311.273 0.14666000000000023
311.588 0.1533300000000004
311.901 0.1333300000000004
312.214 0.1633300000000002
312.527 0.14666000000000023
312.84 0.1200000000000001
313.152 0.13666
313.465 0.13000000000000034
313.778 0.13666
314.091 0.12333000000000016
314.404 0.1333300000000004
314.716 0.11000000000000032
315.029 0.1333300000000004
315.342 0.11000000000000032
315.654 0.12333000000000016
315.967 0.14000000000000012
316.28 0.11000000000000032
316.593 0.15000000000000036
316.905 0.1200000000000001
